# E (eV)  ldosup(E)  ldosdw(E) pdosup(E)  pdosdw(E)  pdosup(E)  pdosdw(E)  pdosup(E)  pdosdw(E) 
  13.000  0.955E-03  0.127E-02  0.318E-03  0.423E-03  0.318E-03  0.423E-03  0.318E-03  0.423E-03
  13.020  0.953E-03  0.122E-02  0.318E-03  0.406E-03  0.318E-03  0.406E-03  0.318E-03  0.406E-03
  13.040  0.990E-03  0.116E-02  0.330E-03  0.386E-03  0.330E-03  0.386E-03  0.330E-03  0.386E-03
  13.060  0.107E-02  0.109E-02  0.357E-03  0.363E-03  0.357E-03  0.363E-03  0.357E-03  0.363E-03
  13.080  0.120E-02  0.102E-02  0.400E-03  0.339E-03  0.400E-03  0.339E-03  0.400E-03  0.339E-03
  13.100  0.137E-02  0.946E-03  0.457E-03  0.315E-03  0.457E-03  0.315E-03  0.457E-03  0.315E-03
  13.120  0.158E-02  0.887E-03  0.526E-03  0.296E-03  0.526E-03  0.296E-03  0.526E-03  0.296E-03
  13.140  0.180E-02  0.847E-03  0.602E-03  0.282E-03  0.602E-03  0.282E-03  0.602E-03  0.282E-03
  13.160  0.204E-02  0.832E-03  0.679E-03  0.277E-03  0.679E-03  0.277E-03  0.679E-03  0.277E-03
  13.180  0.226E-02  0.842E-03  0.754E-03  0.281E-03  0.754E-03  0.281E-03  0.754E-03  0.281E-03
  13.200  0.246E-02  0.875E-03  0.819E-03  0.292E-03  0.819E-03  0.292E-03  0.819E-03  0.292E-03
  13.220  0.261E-02  0.924E-03  0.871E-03  0.308E-03  0.871E-03  0.308E-03  0.871E-03  0.308E-03
  13.240  0.272E-02  0.980E-03  0.906E-03  0.327E-03  0.906E-03  0.327E-03  0.906E-03  0.327E-03
  13.260  0.277E-02  0.103E-02  0.922E-03  0.344E-03  0.922E-03  0.344E-03  0.922E-03  0.344E-03
  13.280  0.275E-02  0.107E-02  0.918E-03  0.357E-03  0.918E-03  0.357E-03  0.918E-03  0.357E-03
  13.300  0.268E-02  0.109E-02  0.895E-03  0.364E-03  0.895E-03  0.364E-03  0.895E-03  0.364E-03
  13.320  0.256E-02  0.109E-02  0.855E-03  0.364E-03  0.855E-03  0.364E-03  0.855E-03  0.364E-03
  13.340  0.241E-02  0.107E-02  0.803E-03  0.356E-03  0.803E-03  0.356E-03  0.803E-03  0.356E-03
  13.360  0.223E-02  0.103E-02  0.742E-03  0.343E-03  0.742E-03  0.343E-03  0.742E-03  0.343E-03
  13.380  0.204E-02  0.985E-03  0.679E-03  0.328E-03  0.679E-03  0.328E-03  0.679E-03  0.328E-03
  13.400  0.185E-02  0.946E-03  0.617E-03  0.315E-03  0.617E-03  0.315E-03  0.617E-03  0.315E-03
  13.420  0.168E-02  0.924E-03  0.561E-03  0.308E-03  0.561E-03  0.308E-03  0.561E-03  0.308E-03
  13.440  0.154E-02  0.928E-03  0.514E-03  0.309E-03  0.514E-03  0.309E-03  0.514E-03  0.309E-03
  13.460  0.143E-02  0.966E-03  0.478E-03  0.322E-03  0.478E-03  0.322E-03  0.478E-03  0.322E-03
  13.480  0.135E-02  0.104E-02  0.451E-03  0.347E-03  0.451E-03  0.347E-03  0.451E-03  0.347E-03
  13.500  0.131E-02  0.115E-02  0.435E-03  0.382E-03  0.435E-03  0.382E-03  0.435E-03  0.382E-03
  13.520  0.128E-02  0.128E-02  0.428E-03  0.425E-03  0.428E-03  0.425E-03  0.428E-03  0.425E-03
  13.540  0.129E-02  0.142E-02  0.429E-03  0.472E-03  0.429E-03  0.472E-03  0.429E-03  0.472E-03
  13.560  0.131E-02  0.156E-02  0.438E-03  0.519E-03  0.438E-03  0.519E-03  0.438E-03  0.519E-03
  13.580  0.136E-02  0.168E-02  0.453E-03  0.560E-03  0.453E-03  0.560E-03  0.453E-03  0.560E-03
  13.600  0.143E-02  0.178E-02  0.476E-03  0.594E-03  0.476E-03  0.594E-03  0.476E-03  0.594E-03
  13.620  0.151E-02  0.185E-02  0.504E-03  0.618E-03  0.504E-03  0.618E-03  0.504E-03  0.618E-03
  13.640  0.161E-02  0.190E-02  0.536E-03  0.634E-03  0.536E-03  0.634E-03  0.536E-03  0.634E-03
  13.660  0.171E-02  0.193E-02  0.571E-03  0.643E-03  0.571E-03  0.643E-03  0.571E-03  0.643E-03
  13.680  0.182E-02  0.195E-02  0.606E-03  0.651E-03  0.606E-03  0.651E-03  0.606E-03  0.651E-03
  13.700  0.192E-02  0.198E-02  0.639E-03  0.662E-03  0.639E-03  0.662E-03  0.639E-03  0.662E-03
  13.720  0.200E-02  0.203E-02  0.667E-03  0.677E-03  0.667E-03  0.677E-03  0.667E-03  0.677E-03
  13.740  0.207E-02  0.210E-02  0.689E-03  0.700E-03  0.689E-03  0.700E-03  0.689E-03  0.700E-03
  13.760  0.211E-02  0.219E-02  0.705E-03  0.729E-03  0.705E-03  0.729E-03  0.705E-03  0.729E-03
  13.780  0.215E-02  0.228E-02  0.715E-03  0.761E-03  0.715E-03  0.761E-03  0.715E-03  0.761E-03
  13.800  0.216E-02  0.238E-02  0.721E-03  0.792E-03  0.721E-03  0.792E-03  0.721E-03  0.792E-03
  13.820  0.217E-02  0.245E-02  0.723E-03  0.816E-03  0.723E-03  0.816E-03  0.723E-03  0.816E-03
  13.840  0.217E-02  0.249E-02  0.724E-03  0.828E-03  0.724E-03  0.828E-03  0.724E-03  0.828E-03
  13.860  0.217E-02  0.248E-02  0.722E-03  0.826E-03  0.722E-03  0.826E-03  0.722E-03  0.826E-03
  13.880  0.215E-02  0.242E-02  0.718E-03  0.807E-03  0.718E-03  0.807E-03  0.718E-03  0.807E-03
  13.900  0.214E-02  0.232E-02  0.712E-03  0.772E-03  0.712E-03  0.772E-03  0.712E-03  0.772E-03
  13.920  0.211E-02  0.217E-02  0.704E-03  0.723E-03  0.704E-03  0.723E-03  0.704E-03  0.723E-03
  13.940  0.207E-02  0.199E-02  0.691E-03  0.663E-03  0.691E-03  0.663E-03  0.691E-03  0.663E-03
  13.960  0.203E-02  0.179E-02  0.675E-03  0.598E-03  0.675E-03  0.598E-03  0.675E-03  0.598E-03
  13.980  0.196E-02  0.160E-02  0.655E-03  0.532E-03  0.655E-03  0.532E-03  0.655E-03  0.532E-03
  14.000  0.189E-02  0.141E-02  0.630E-03  0.471E-03  0.630E-03  0.471E-03  0.630E-03  0.471E-03
  14.020  0.181E-02  0.126E-02  0.602E-03  0.420E-03  0.602E-03  0.420E-03  0.602E-03  0.420E-03
  14.040  0.171E-02  0.115E-02  0.571E-03  0.383E-03  0.571E-03  0.383E-03  0.571E-03  0.383E-03
  14.060  0.161E-02  0.109E-02  0.538E-03  0.362E-03  0.538E-03  0.362E-03  0.538E-03  0.362E-03
  14.080  0.151E-02  0.107E-02  0.503E-03  0.358E-03  0.503E-03  0.358E-03  0.503E-03  0.358E-03
  14.100  0.140E-02  0.111E-02  0.466E-03  0.371E-03  0.466E-03  0.371E-03  0.466E-03  0.371E-03
  14.120  0.129E-02  0.119E-02  0.430E-03  0.396E-03  0.430E-03  0.396E-03  0.430E-03  0.396E-03
  14.140  0.118E-02  0.129E-02  0.393E-03  0.429E-03  0.393E-03  0.429E-03  0.393E-03  0.429E-03
  14.160  0.107E-02  0.139E-02  0.356E-03  0.464E-03  0.356E-03  0.464E-03  0.356E-03  0.464E-03
  14.180  0.964E-03  0.149E-02  0.321E-03  0.496E-03  0.321E-03  0.496E-03  0.321E-03  0.496E-03
  14.200  0.866E-03  0.155E-02  0.289E-03  0.518E-03  0.289E-03  0.518E-03  0.289E-03  0.518E-03
  14.220  0.778E-03  0.159E-02  0.259E-03  0.530E-03  0.259E-03  0.530E-03  0.259E-03  0.530E-03
  14.240  0.703E-03  0.159E-02  0.234E-03  0.530E-03  0.234E-03  0.530E-03  0.234E-03  0.530E-03
  14.260  0.641E-03  0.156E-02  0.214E-03  0.522E-03  0.214E-03  0.522E-03  0.214E-03  0.522E-03
  14.280  0.594E-03  0.153E-02  0.198E-03  0.509E-03  0.198E-03  0.509E-03  0.198E-03  0.509E-03
  14.300  0.560E-03  0.149E-02  0.187E-03  0.497E-03  0.187E-03  0.497E-03  0.187E-03  0.497E-03
  14.320  0.537E-03  0.148E-02  0.179E-03  0.492E-03  0.179E-03  0.492E-03  0.179E-03  0.492E-03
  14.340  0.523E-03  0.149E-02  0.174E-03  0.498E-03  0.174E-03  0.498E-03  0.174E-03  0.498E-03
  14.360  0.513E-03  0.155E-02  0.171E-03  0.517E-03  0.171E-03  0.517E-03  0.171E-03  0.517E-03
  14.380  0.504E-03  0.165E-02  0.168E-03  0.551E-03  0.168E-03  0.551E-03  0.168E-03  0.551E-03
  14.400  0.494E-03  0.179E-02  0.165E-03  0.598E-03  0.165E-03  0.598E-03  0.165E-03  0.598E-03
  14.420  0.483E-03  0.197E-02  0.161E-03  0.655E-03  0.161E-03  0.655E-03  0.161E-03  0.655E-03
  14.440  0.469E-03  0.216E-02  0.156E-03  0.719E-03  0.156E-03  0.719E-03  0.156E-03  0.719E-03
  14.460  0.455E-03  0.235E-02  0.152E-03  0.785E-03  0.152E-03  0.785E-03  0.152E-03  0.785E-03
  14.480  0.444E-03  0.254E-02  0.148E-03  0.848E-03  0.148E-03  0.848E-03  0.148E-03  0.848E-03
  14.500  0.439E-03  0.271E-02  0.146E-03  0.905E-03  0.146E-03  0.905E-03  0.146E-03  0.905E-03
  14.520  0.444E-03  0.286E-02  0.148E-03  0.953E-03  0.148E-03  0.953E-03  0.148E-03  0.953E-03
  14.540  0.461E-03  0.297E-02  0.154E-03  0.989E-03  0.154E-03  0.989E-03  0.154E-03  0.989E-03
  14.560  0.494E-03  0.303E-02  0.165E-03  0.101E-02  0.165E-03  0.101E-02  0.165E-03  0.101E-02
  14.580  0.543E-03  0.306E-02  0.181E-03  0.102E-02  0.181E-03  0.102E-02  0.181E-03  0.102E-02
  14.600  0.607E-03  0.304E-02  0.202E-03  0.101E-02  0.202E-03  0.101E-02  0.202E-03  0.101E-02
  14.620  0.687E-03  0.298E-02  0.229E-03  0.993E-03  0.229E-03  0.993E-03  0.229E-03  0.993E-03
  14.640  0.779E-03  0.287E-02  0.260E-03  0.958E-03  0.260E-03  0.958E-03  0.260E-03  0.958E-03
  14.660  0.879E-03  0.272E-02  0.293E-03  0.908E-03  0.293E-03  0.908E-03  0.293E-03  0.908E-03
  14.680  0.984E-03  0.254E-02  0.328E-03  0.846E-03  0.328E-03  0.846E-03  0.328E-03  0.846E-03
  14.700  0.109E-02  0.233E-02  0.362E-03  0.775E-03  0.362E-03  0.775E-03  0.362E-03  0.775E-03
  14.720  0.118E-02  0.210E-02  0.395E-03  0.699E-03  0.395E-03  0.699E-03  0.395E-03  0.699E-03
  14.740  0.127E-02  0.187E-02  0.424E-03  0.623E-03  0.424E-03  0.623E-03  0.424E-03  0.623E-03
  14.760  0.135E-02  0.165E-02  0.450E-03  0.551E-03  0.450E-03  0.551E-03  0.450E-03  0.551E-03
  14.780  0.141E-02  0.147E-02  0.471E-03  0.489E-03  0.471E-03  0.489E-03  0.471E-03  0.489E-03
  14.800  0.146E-02  0.132E-02  0.487E-03  0.441E-03  0.487E-03  0.441E-03  0.487E-03  0.441E-03
  14.820  0.150E-02  0.122E-02  0.499E-03  0.407E-03  0.499E-03  0.407E-03  0.499E-03  0.407E-03
  14.840  0.152E-02  0.117E-02  0.508E-03  0.388E-03  0.508E-03  0.388E-03  0.508E-03  0.388E-03
  14.860  0.154E-02  0.115E-02  0.512E-03  0.384E-03  0.512E-03  0.384E-03  0.512E-03  0.384E-03
  14.880  0.154E-02  0.117E-02  0.514E-03  0.390E-03  0.514E-03  0.390E-03  0.514E-03  0.390E-03
  14.900  0.153E-02  0.121E-02  0.511E-03  0.404E-03  0.511E-03  0.404E-03  0.511E-03  0.404E-03
  14.920  0.152E-02  0.127E-02  0.505E-03  0.424E-03  0.505E-03  0.424E-03  0.505E-03  0.424E-03
  14.940  0.149E-02  0.134E-02  0.496E-03  0.446E-03  0.496E-03  0.446E-03  0.496E-03  0.446E-03
  14.960  0.145E-02  0.141E-02  0.483E-03  0.469E-03  0.483E-03  0.469E-03  0.483E-03  0.469E-03
  14.980  0.140E-02  0.147E-02  0.468E-03  0.491E-03  0.468E-03  0.491E-03  0.468E-03  0.491E-03
  15.000  0.136E-02  0.154E-02  0.452E-03  0.513E-03  0.452E-03  0.513E-03  0.452E-03  0.513E-03
  15.020  0.131E-02  0.160E-02  0.438E-03  0.534E-03  0.438E-03  0.534E-03  0.438E-03  0.534E-03
  15.040  0.128E-02  0.166E-02  0.426E-03  0.552E-03  0.426E-03  0.552E-03  0.426E-03  0.552E-03
  15.060  0.126E-02  0.170E-02  0.419E-03  0.568E-03  0.419E-03  0.568E-03  0.419E-03  0.568E-03
  15.080  0.125E-02  0.174E-02  0.416E-03  0.581E-03  0.416E-03  0.581E-03  0.416E-03  0.581E-03
  15.100  0.125E-02  0.177E-02  0.418E-03  0.591E-03  0.418E-03  0.591E-03  0.418E-03  0.591E-03
  15.120  0.127E-02  0.179E-02  0.424E-03  0.597E-03  0.424E-03  0.597E-03  0.424E-03  0.597E-03
  15.140  0.130E-02  0.181E-02  0.434E-03  0.602E-03  0.434E-03  0.602E-03  0.434E-03  0.602E-03
  15.160  0.134E-02  0.182E-02  0.448E-03  0.606E-03  0.448E-03  0.606E-03  0.448E-03  0.606E-03
  15.180  0.140E-02  0.183E-02  0.465E-03  0.610E-03  0.465E-03  0.610E-03  0.465E-03  0.610E-03
  15.200  0.146E-02  0.185E-02  0.486E-03  0.616E-03  0.486E-03  0.616E-03  0.486E-03  0.616E-03
  15.220  0.154E-02  0.187E-02  0.512E-03  0.624E-03  0.512E-03  0.624E-03  0.512E-03  0.624E-03
  15.240  0.163E-02  0.190E-02  0.543E-03  0.635E-03  0.543E-03  0.635E-03  0.543E-03  0.635E-03
  15.260  0.173E-02  0.194E-02  0.577E-03  0.646E-03  0.577E-03  0.646E-03  0.577E-03  0.646E-03
  15.280  0.184E-02  0.197E-02  0.613E-03  0.657E-03  0.613E-03  0.657E-03  0.613E-03  0.657E-03
  15.300  0.195E-02  0.199E-02  0.650E-03  0.664E-03  0.650E-03  0.664E-03  0.650E-03  0.664E-03
  15.320  0.205E-02  0.200E-02  0.685E-03  0.667E-03  0.685E-03  0.667E-03  0.685E-03  0.667E-03
  15.340  0.215E-02  0.199E-02  0.716E-03  0.663E-03  0.716E-03  0.663E-03  0.716E-03  0.663E-03
  15.360  0.222E-02  0.196E-02  0.741E-03  0.653E-03  0.741E-03  0.653E-03  0.741E-03  0.653E-03
  15.380  0.228E-02  0.191E-02  0.761E-03  0.636E-03  0.761E-03  0.636E-03  0.761E-03  0.636E-03
  15.400  0.232E-02  0.184E-02  0.773E-03  0.614E-03  0.773E-03  0.614E-03  0.773E-03  0.614E-03
  15.420  0.234E-02  0.177E-02  0.780E-03  0.589E-03  0.780E-03  0.589E-03  0.780E-03  0.589E-03
  15.440  0.234E-02  0.169E-02  0.780E-03  0.562E-03  0.780E-03  0.562E-03  0.780E-03  0.562E-03
  15.460  0.233E-02  0.161E-02  0.776E-03  0.536E-03  0.776E-03  0.536E-03  0.776E-03  0.536E-03
  15.480  0.230E-02  0.153E-02  0.767E-03  0.510E-03  0.767E-03  0.510E-03  0.767E-03  0.510E-03
  15.500  0.226E-02  0.146E-02  0.754E-03  0.485E-03  0.754E-03  0.485E-03  0.754E-03  0.485E-03
  15.520  0.221E-02  0.138E-02  0.738E-03  0.461E-03  0.738E-03  0.461E-03  0.738E-03  0.461E-03
  15.540  0.216E-02  0.131E-02  0.719E-03  0.438E-03  0.719E-03  0.438E-03  0.719E-03  0.438E-03
  15.560  0.210E-02  0.124E-02  0.699E-03  0.414E-03  0.699E-03  0.414E-03  0.699E-03  0.414E-03
  15.580  0.203E-02  0.117E-02  0.678E-03  0.391E-03  0.678E-03  0.391E-03  0.678E-03  0.391E-03
  15.600  0.197E-02  0.110E-02  0.658E-03  0.368E-03  0.658E-03  0.368E-03  0.658E-03  0.368E-03
  15.620  0.191E-02  0.104E-02  0.637E-03  0.347E-03  0.637E-03  0.347E-03  0.637E-03  0.347E-03
  15.640  0.185E-02  0.983E-03  0.617E-03  0.328E-03  0.617E-03  0.328E-03  0.617E-03  0.328E-03
  15.660  0.179E-02  0.932E-03  0.597E-03  0.311E-03  0.597E-03  0.311E-03  0.597E-03  0.311E-03
  15.680  0.172E-02  0.886E-03  0.574E-03  0.295E-03  0.574E-03  0.295E-03  0.574E-03  0.295E-03
  15.700  0.165E-02  0.846E-03  0.549E-03  0.282E-03  0.549E-03  0.282E-03  0.549E-03  0.282E-03
  15.720  0.157E-02  0.808E-03  0.522E-03  0.269E-03  0.522E-03  0.269E-03  0.522E-03  0.269E-03
  15.740  0.147E-02  0.772E-03  0.492E-03  0.257E-03  0.492E-03  0.257E-03  0.492E-03  0.257E-03
  15.760  0.138E-02  0.734E-03  0.460E-03  0.245E-03  0.460E-03  0.245E-03  0.460E-03  0.245E-03
  15.780  0.128E-02  0.695E-03  0.428E-03  0.232E-03  0.428E-03  0.232E-03  0.428E-03  0.232E-03
  15.800  0.119E-02  0.655E-03  0.397E-03  0.218E-03  0.397E-03  0.218E-03  0.397E-03  0.218E-03
  15.820  0.110E-02  0.616E-03  0.368E-03  0.205E-03  0.368E-03  0.205E-03  0.368E-03  0.205E-03
  15.840  0.103E-02  0.579E-03  0.343E-03  0.193E-03  0.343E-03  0.193E-03  0.343E-03  0.193E-03
  15.860  0.965E-03  0.548E-03  0.322E-03  0.183E-03  0.322E-03  0.183E-03  0.322E-03  0.183E-03
  15.880  0.915E-03  0.523E-03  0.305E-03  0.174E-03  0.305E-03  0.174E-03  0.305E-03  0.174E-03
  15.900  0.879E-03  0.506E-03  0.293E-03  0.169E-03  0.293E-03  0.169E-03  0.293E-03  0.169E-03
  15.920  0.857E-03  0.496E-03  0.286E-03  0.165E-03  0.286E-03  0.165E-03  0.286E-03  0.165E-03
  15.940  0.850E-03  0.493E-03  0.283E-03  0.164E-03  0.283E-03  0.164E-03  0.283E-03  0.164E-03
  15.960  0.856E-03  0.494E-03  0.285E-03  0.165E-03  0.285E-03  0.165E-03  0.285E-03  0.165E-03
  15.980  0.872E-03  0.497E-03  0.291E-03  0.166E-03  0.291E-03  0.166E-03  0.291E-03  0.166E-03
  16.000  0.895E-03  0.501E-03  0.298E-03  0.167E-03  0.298E-03  0.167E-03  0.298E-03  0.167E-03
  16.020  0.921E-03  0.503E-03  0.307E-03  0.168E-03  0.307E-03  0.168E-03  0.307E-03  0.168E-03
  16.040  0.944E-03  0.504E-03  0.315E-03  0.168E-03  0.315E-03  0.168E-03  0.315E-03  0.168E-03
  16.060  0.960E-03  0.506E-03  0.320E-03  0.169E-03  0.320E-03  0.169E-03  0.320E-03  0.169E-03
  16.080  0.966E-03  0.512E-03  0.322E-03  0.171E-03  0.322E-03  0.171E-03  0.322E-03  0.171E-03
  16.100  0.962E-03  0.525E-03  0.321E-03  0.175E-03  0.321E-03  0.175E-03  0.321E-03  0.175E-03
  16.120  0.948E-03  0.551E-03  0.316E-03  0.184E-03  0.316E-03  0.184E-03  0.316E-03  0.184E-03
  16.140  0.930E-03  0.594E-03  0.310E-03  0.198E-03  0.310E-03  0.198E-03  0.310E-03  0.198E-03
  16.160  0.911E-03  0.656E-03  0.304E-03  0.219E-03  0.304E-03  0.219E-03  0.304E-03  0.219E-03
  16.180  0.898E-03  0.739E-03  0.299E-03  0.246E-03  0.299E-03  0.246E-03  0.299E-03  0.246E-03
  16.200  0.896E-03  0.843E-03  0.299E-03  0.281E-03  0.299E-03  0.281E-03  0.299E-03  0.281E-03
  16.220  0.908E-03  0.964E-03  0.303E-03  0.321E-03  0.303E-03  0.321E-03  0.303E-03  0.321E-03
  16.240  0.933E-03  0.110E-02  0.311E-03  0.367E-03  0.311E-03  0.367E-03  0.311E-03  0.367E-03
  16.260  0.968E-03  0.125E-02  0.323E-03  0.415E-03  0.323E-03  0.415E-03  0.323E-03  0.415E-03
  16.280  0.101E-02  0.140E-02  0.335E-03  0.466E-03  0.335E-03  0.466E-03  0.335E-03  0.466E-03
  16.300  0.104E-02  0.155E-02  0.347E-03  0.517E-03  0.347E-03  0.517E-03  0.347E-03  0.517E-03
  16.320  0.106E-02  0.170E-02  0.354E-03  0.568E-03  0.354E-03  0.568E-03  0.354E-03  0.568E-03
  16.340  0.106E-02  0.185E-02  0.354E-03  0.618E-03  0.354E-03  0.618E-03  0.354E-03  0.618E-03
  16.360  0.104E-02  0.200E-02  0.347E-03  0.667E-03  0.347E-03  0.667E-03  0.347E-03  0.667E-03
  16.380  0.996E-03  0.214E-02  0.332E-03  0.714E-03  0.332E-03  0.714E-03  0.332E-03  0.714E-03
  16.400  0.929E-03  0.227E-02  0.310E-03  0.757E-03  0.310E-03  0.757E-03  0.310E-03  0.757E-03
  16.420  0.845E-03  0.239E-02  0.282E-03  0.797E-03  0.282E-03  0.797E-03  0.282E-03  0.797E-03
  16.440  0.751E-03  0.249E-02  0.250E-03  0.832E-03  0.250E-03  0.832E-03  0.250E-03  0.832E-03
  16.460  0.655E-03  0.258E-02  0.218E-03  0.859E-03  0.218E-03  0.859E-03  0.218E-03  0.859E-03
  16.480  0.563E-03  0.264E-02  0.188E-03  0.879E-03  0.188E-03  0.879E-03  0.188E-03  0.879E-03
  16.500  0.479E-03  0.267E-02  0.160E-03  0.892E-03  0.160E-03  0.892E-03  0.160E-03  0.892E-03
  16.520  0.407E-03  0.269E-02  0.136E-03  0.898E-03  0.136E-03  0.898E-03  0.136E-03  0.898E-03
  16.540  0.348E-03  0.270E-02  0.116E-03  0.901E-03  0.116E-03  0.901E-03  0.116E-03  0.901E-03
  16.560  0.301E-03  0.271E-02  0.100E-03  0.903E-03  0.100E-03  0.903E-03  0.100E-03  0.903E-03
  16.580  0.266E-03  0.272E-02  0.887E-04  0.907E-03  0.887E-04  0.907E-03  0.887E-04  0.907E-03
  16.600  0.242E-03  0.274E-02  0.805E-04  0.914E-03  0.805E-04  0.914E-03  0.805E-04  0.914E-03
  16.620  0.227E-03  0.278E-02  0.756E-04  0.926E-03  0.756E-04  0.926E-03  0.756E-04  0.926E-03
  16.640  0.220E-03  0.282E-02  0.734E-04  0.939E-03  0.734E-04  0.939E-03  0.734E-04  0.939E-03
  16.660  0.222E-03  0.286E-02  0.739E-04  0.952E-03  0.739E-04  0.952E-03  0.739E-04  0.952E-03
  16.680  0.231E-03  0.288E-02  0.769E-04  0.961E-03  0.769E-04  0.961E-03  0.769E-04  0.961E-03
  16.700  0.247E-03  0.289E-02  0.824E-04  0.964E-03  0.824E-04  0.964E-03  0.824E-04  0.964E-03
  16.720  0.271E-03  0.287E-02  0.902E-04  0.956E-03  0.902E-04  0.956E-03  0.902E-04  0.956E-03
  16.740  0.301E-03  0.282E-02  0.100E-03  0.940E-03  0.100E-03  0.940E-03  0.100E-03  0.940E-03
  16.760  0.337E-03  0.275E-02  0.112E-03  0.915E-03  0.112E-03  0.915E-03  0.112E-03  0.915E-03
  16.780  0.378E-03  0.266E-02  0.126E-03  0.886E-03  0.126E-03  0.886E-03  0.126E-03  0.886E-03
  16.800  0.424E-03  0.256E-02  0.141E-03  0.855E-03  0.141E-03  0.855E-03  0.141E-03  0.855E-03
  16.820  0.473E-03  0.248E-02  0.158E-03  0.826E-03  0.158E-03  0.826E-03  0.158E-03  0.826E-03
  16.840  0.523E-03  0.241E-02  0.174E-03  0.803E-03  0.174E-03  0.803E-03  0.174E-03  0.803E-03
  16.860  0.573E-03  0.237E-02  0.191E-03  0.788E-03  0.191E-03  0.788E-03  0.191E-03  0.788E-03
  16.880  0.620E-03  0.235E-02  0.207E-03  0.782E-03  0.207E-03  0.782E-03  0.207E-03  0.782E-03
  16.900  0.660E-03  0.235E-02  0.220E-03  0.784E-03  0.220E-03  0.784E-03  0.220E-03  0.784E-03
  16.920  0.692E-03  0.238E-02  0.231E-03  0.793E-03  0.231E-03  0.793E-03  0.231E-03  0.793E-03
  16.940  0.712E-03  0.242E-02  0.237E-03  0.807E-03  0.237E-03  0.807E-03  0.237E-03  0.807E-03
  16.960  0.719E-03  0.248E-02  0.240E-03  0.825E-03  0.240E-03  0.825E-03  0.240E-03  0.825E-03
  16.980  0.711E-03  0.254E-02  0.237E-03  0.846E-03  0.237E-03  0.846E-03  0.237E-03  0.846E-03
  17.000  0.691E-03  0.261E-02  0.230E-03  0.869E-03  0.230E-03  0.869E-03  0.230E-03  0.869E-03
  17.020  0.659E-03  0.268E-02  0.220E-03  0.892E-03  0.220E-03  0.892E-03  0.220E-03  0.892E-03
  17.040  0.620E-03  0.274E-02  0.207E-03  0.915E-03  0.207E-03  0.915E-03  0.207E-03  0.915E-03
  17.060  0.578E-03  0.281E-02  0.193E-03  0.937E-03  0.193E-03  0.937E-03  0.193E-03  0.937E-03
  17.080  0.537E-03  0.288E-02  0.179E-03  0.958E-03  0.179E-03  0.958E-03  0.179E-03  0.958E-03
  17.100  0.499E-03  0.293E-02  0.166E-03  0.977E-03  0.166E-03  0.977E-03  0.166E-03  0.977E-03
  17.120  0.469E-03  0.298E-02  0.156E-03  0.992E-03  0.156E-03  0.992E-03  0.156E-03  0.992E-03
  17.140  0.447E-03  0.301E-02  0.149E-03  0.100E-02  0.149E-03  0.100E-02  0.149E-03  0.100E-02
  17.160  0.433E-03  0.302E-02  0.144E-03  0.101E-02  0.144E-03  0.101E-02  0.144E-03  0.101E-02
  17.180  0.429E-03  0.301E-02  0.143E-03  0.100E-02  0.143E-03  0.100E-02  0.143E-03  0.100E-02
  17.200  0.434E-03  0.297E-02  0.145E-03  0.991E-03  0.145E-03  0.991E-03  0.145E-03  0.991E-03
  17.220  0.445E-03  0.291E-02  0.148E-03  0.970E-03  0.148E-03  0.970E-03  0.148E-03  0.970E-03
  17.240  0.461E-03  0.282E-02  0.154E-03  0.940E-03  0.154E-03  0.940E-03  0.154E-03  0.940E-03
  17.260  0.481E-03  0.271E-02  0.160E-03  0.905E-03  0.160E-03  0.905E-03  0.160E-03  0.905E-03
  17.280  0.502E-03  0.260E-02  0.167E-03  0.866E-03  0.167E-03  0.866E-03  0.167E-03  0.866E-03
  17.300  0.521E-03  0.248E-02  0.174E-03  0.828E-03  0.174E-03  0.828E-03  0.174E-03  0.828E-03
  17.320  0.539E-03  0.238E-02  0.180E-03  0.794E-03  0.180E-03  0.794E-03  0.180E-03  0.794E-03
  17.340  0.552E-03  0.229E-02  0.184E-03  0.765E-03  0.184E-03  0.765E-03  0.184E-03  0.765E-03
  17.360  0.560E-03  0.223E-02  0.187E-03  0.743E-03  0.187E-03  0.743E-03  0.187E-03  0.743E-03
  17.380  0.564E-03  0.218E-02  0.188E-03  0.727E-03  0.188E-03  0.727E-03  0.188E-03  0.727E-03
  17.400  0.564E-03  0.214E-02  0.188E-03  0.715E-03  0.188E-03  0.715E-03  0.188E-03  0.715E-03
  17.420  0.562E-03  0.211E-02  0.187E-03  0.704E-03  0.187E-03  0.704E-03  0.187E-03  0.704E-03
  17.440  0.560E-03  0.208E-02  0.187E-03  0.694E-03  0.187E-03  0.694E-03  0.187E-03  0.694E-03
  17.460  0.561E-03  0.204E-02  0.187E-03  0.681E-03  0.187E-03  0.681E-03  0.187E-03  0.681E-03
  17.480  0.569E-03  0.199E-02  0.190E-03  0.665E-03  0.190E-03  0.665E-03  0.190E-03  0.665E-03
  17.500  0.585E-03  0.194E-02  0.195E-03  0.646E-03  0.195E-03  0.646E-03  0.195E-03  0.646E-03
  17.520  0.613E-03  0.188E-02  0.204E-03  0.625E-03  0.204E-03  0.625E-03  0.204E-03  0.625E-03
  17.540  0.651E-03  0.181E-02  0.217E-03  0.603E-03  0.217E-03  0.603E-03  0.217E-03  0.603E-03
  17.560  0.699E-03  0.174E-02  0.233E-03  0.579E-03  0.233E-03  0.579E-03  0.233E-03  0.579E-03
  17.580  0.752E-03  0.166E-02  0.251E-03  0.553E-03  0.251E-03  0.553E-03  0.251E-03  0.553E-03
  17.600  0.806E-03  0.158E-02  0.269E-03  0.526E-03  0.269E-03  0.526E-03  0.269E-03  0.526E-03
  17.620  0.854E-03  0.149E-02  0.285E-03  0.496E-03  0.285E-03  0.496E-03  0.285E-03  0.496E-03
  17.640  0.889E-03  0.139E-02  0.296E-03  0.462E-03  0.296E-03  0.462E-03  0.296E-03  0.462E-03
  17.660  0.905E-03  0.128E-02  0.302E-03  0.427E-03  0.302E-03  0.427E-03  0.302E-03  0.427E-03
  17.680  0.899E-03  0.117E-02  0.300E-03  0.390E-03  0.300E-03  0.390E-03  0.300E-03  0.390E-03
  17.700  0.870E-03  0.107E-02  0.290E-03  0.356E-03  0.290E-03  0.356E-03  0.290E-03  0.356E-03
  17.720  0.822E-03  0.976E-03  0.274E-03  0.325E-03  0.274E-03  0.325E-03  0.274E-03  0.325E-03
  17.740  0.760E-03  0.907E-03  0.253E-03  0.302E-03  0.253E-03  0.302E-03  0.253E-03  0.302E-03
  17.760  0.690E-03  0.867E-03  0.230E-03  0.289E-03  0.230E-03  0.289E-03  0.230E-03  0.289E-03
  17.780  0.621E-03  0.860E-03  0.207E-03  0.287E-03  0.207E-03  0.287E-03  0.207E-03  0.287E-03
  17.800  0.558E-03  0.886E-03  0.186E-03  0.295E-03  0.186E-03  0.295E-03  0.186E-03  0.295E-03
  17.820  0.505E-03  0.941E-03  0.168E-03  0.314E-03  0.168E-03  0.314E-03  0.168E-03  0.314E-03
  17.840  0.465E-03  0.102E-02  0.155E-03  0.339E-03  0.155E-03  0.339E-03  0.155E-03  0.339E-03
  17.860  0.436E-03  0.110E-02  0.145E-03  0.367E-03  0.145E-03  0.367E-03  0.145E-03  0.367E-03
  17.880  0.417E-03  0.118E-02  0.139E-03  0.394E-03  0.139E-03  0.394E-03  0.139E-03  0.394E-03
  17.900  0.405E-03  0.125E-02  0.135E-03  0.416E-03  0.135E-03  0.416E-03  0.135E-03  0.416E-03
  17.920  0.396E-03  0.128E-02  0.132E-03  0.428E-03  0.132E-03  0.428E-03  0.132E-03  0.428E-03
  17.940  0.389E-03  0.129E-02  0.130E-03  0.429E-03  0.130E-03  0.429E-03  0.130E-03  0.429E-03
  17.960  0.381E-03  0.125E-02  0.127E-03  0.417E-03  0.127E-03  0.417E-03  0.127E-03  0.417E-03
  17.980  0.373E-03  0.118E-02  0.124E-03  0.394E-03  0.124E-03  0.394E-03  0.124E-03  0.394E-03
  18.000  0.365E-03  0.108E-02  0.122E-03  0.360E-03  0.122E-03  0.360E-03  0.122E-03  0.360E-03
  18.020  0.358E-03  0.959E-03  0.119E-03  0.320E-03  0.119E-03  0.320E-03  0.119E-03  0.320E-03
  18.040  0.353E-03  0.828E-03  0.118E-03  0.276E-03  0.118E-03  0.276E-03  0.118E-03  0.276E-03
  18.060  0.352E-03  0.697E-03  0.117E-03  0.232E-03  0.117E-03  0.232E-03  0.117E-03  0.232E-03
  18.080  0.353E-03  0.578E-03  0.118E-03  0.193E-03  0.118E-03  0.193E-03  0.118E-03  0.193E-03
  18.100  0.358E-03  0.477E-03  0.119E-03  0.159E-03  0.119E-03  0.159E-03  0.119E-03  0.159E-03
  18.120  0.365E-03  0.401E-03  0.122E-03  0.134E-03  0.122E-03  0.134E-03  0.122E-03  0.134E-03
  18.140  0.374E-03  0.352E-03  0.125E-03  0.117E-03  0.125E-03  0.117E-03  0.125E-03  0.117E-03
  18.160  0.384E-03  0.329E-03  0.128E-03  0.110E-03  0.128E-03  0.110E-03  0.128E-03  0.110E-03
  18.180  0.396E-03  0.328E-03  0.132E-03  0.109E-03  0.132E-03  0.109E-03  0.132E-03  0.109E-03
  18.200  0.409E-03  0.346E-03  0.136E-03  0.115E-03  0.136E-03  0.115E-03  0.136E-03  0.115E-03
  18.220  0.425E-03  0.375E-03  0.142E-03  0.125E-03  0.142E-03  0.125E-03  0.142E-03  0.125E-03
  18.240  0.445E-03  0.408E-03  0.148E-03  0.136E-03  0.148E-03  0.136E-03  0.148E-03  0.136E-03
  18.260  0.470E-03  0.437E-03  0.157E-03  0.146E-03  0.157E-03  0.146E-03  0.157E-03  0.146E-03
  18.280  0.501E-03  0.459E-03  0.167E-03  0.153E-03  0.167E-03  0.153E-03  0.167E-03  0.153E-03
  18.300  0.535E-03  0.469E-03  0.178E-03  0.156E-03  0.178E-03  0.156E-03  0.178E-03  0.156E-03
  18.320  0.571E-03  0.468E-03  0.190E-03  0.156E-03  0.190E-03  0.156E-03  0.190E-03  0.156E-03
  18.340  0.605E-03  0.455E-03  0.202E-03  0.152E-03  0.202E-03  0.152E-03  0.202E-03  0.152E-03
  18.360  0.633E-03  0.434E-03  0.211E-03  0.145E-03  0.211E-03  0.145E-03  0.211E-03  0.145E-03
  18.380  0.652E-03  0.408E-03  0.217E-03  0.136E-03  0.217E-03  0.136E-03  0.217E-03  0.136E-03
  18.400  0.658E-03  0.382E-03  0.219E-03  0.127E-03  0.219E-03  0.127E-03  0.219E-03  0.127E-03
  18.420  0.649E-03  0.358E-03  0.216E-03  0.119E-03  0.216E-03  0.119E-03  0.216E-03  0.119E-03
  18.440  0.625E-03  0.336E-03  0.208E-03  0.112E-03  0.208E-03  0.112E-03  0.208E-03  0.112E-03
  18.460  0.588E-03  0.318E-03  0.196E-03  0.106E-03  0.196E-03  0.106E-03  0.196E-03  0.106E-03
  18.480  0.539E-03  0.301E-03  0.180E-03  0.100E-03  0.180E-03  0.100E-03  0.180E-03  0.100E-03
  18.500  0.484E-03  0.284E-03  0.161E-03  0.947E-04  0.161E-03  0.947E-04  0.161E-03  0.947E-04
  18.520  0.424E-03  0.266E-03  0.141E-03  0.887E-04  0.141E-03  0.887E-04  0.141E-03  0.887E-04
  18.540  0.365E-03  0.246E-03  0.122E-03  0.819E-04  0.122E-03  0.819E-04  0.122E-03  0.819E-04
  18.560  0.309E-03  0.223E-03  0.103E-03  0.743E-04  0.103E-03  0.743E-04  0.103E-03  0.743E-04
  18.580  0.259E-03  0.198E-03  0.864E-04  0.660E-04  0.864E-04  0.660E-04  0.864E-04  0.660E-04
  18.600  0.217E-03  0.172E-03  0.722E-04  0.575E-04  0.722E-04  0.575E-04  0.722E-04  0.575E-04
  18.620  0.182E-03  0.148E-03  0.606E-04  0.493E-04  0.606E-04  0.493E-04  0.606E-04  0.493E-04
  18.640  0.155E-03  0.126E-03  0.516E-04  0.420E-04  0.516E-04  0.420E-04  0.516E-04  0.420E-04
  18.660  0.134E-03  0.108E-03  0.448E-04  0.359E-04  0.448E-04  0.359E-04  0.448E-04  0.359E-04
  18.680  0.119E-03  0.936E-04  0.397E-04  0.312E-04  0.397E-04  0.312E-04  0.397E-04  0.312E-04
  18.700  0.108E-03  0.841E-04  0.360E-04  0.280E-04  0.360E-04  0.280E-04  0.360E-04  0.280E-04
  18.720  0.100E-03  0.789E-04  0.334E-04  0.263E-04  0.334E-04  0.263E-04  0.334E-04  0.263E-04
  18.740  0.945E-04  0.773E-04  0.315E-04  0.258E-04  0.315E-04  0.258E-04  0.315E-04  0.258E-04
  18.760  0.912E-04  0.787E-04  0.304E-04  0.262E-04  0.304E-04  0.262E-04  0.304E-04  0.262E-04
  18.780  0.908E-04  0.823E-04  0.303E-04  0.274E-04  0.303E-04  0.274E-04  0.303E-04  0.274E-04
  18.800  0.939E-04  0.876E-04  0.313E-04  0.292E-04  0.313E-04  0.292E-04  0.313E-04  0.292E-04
  18.820  0.101E-03  0.939E-04  0.338E-04  0.313E-04  0.338E-04  0.313E-04  0.338E-04  0.313E-04
  18.840  0.114E-03  0.101E-03  0.379E-04  0.337E-04  0.379E-04  0.337E-04  0.379E-04  0.337E-04
  18.860  0.131E-03  0.109E-03  0.437E-04  0.362E-04  0.437E-04  0.362E-04  0.437E-04  0.362E-04
  18.880  0.154E-03  0.117E-03  0.512E-04  0.388E-04  0.512E-04  0.388E-04  0.512E-04  0.388E-04
  18.900  0.180E-03  0.125E-03  0.600E-04  0.415E-04  0.600E-04  0.415E-04  0.600E-04  0.415E-04
  18.920  0.210E-03  0.133E-03  0.699E-04  0.443E-04  0.699E-04  0.443E-04  0.699E-04  0.443E-04
  18.940  0.241E-03  0.141E-03  0.802E-04  0.471E-04  0.802E-04  0.471E-04  0.802E-04  0.471E-04
  18.960  0.272E-03  0.149E-03  0.906E-04  0.498E-04  0.906E-04  0.498E-04  0.906E-04  0.498E-04
  18.980  0.303E-03  0.157E-03  0.101E-03  0.524E-04  0.101E-03  0.524E-04  0.101E-03  0.524E-04
  19.000  0.334E-03  0.164E-03  0.111E-03  0.548E-04  0.111E-03  0.548E-04  0.111E-03  0.548E-04
  19.020  0.364E-03  0.171E-03  0.121E-03  0.569E-04  0.121E-03  0.569E-04  0.121E-03  0.569E-04
  19.040  0.395E-03  0.176E-03  0.132E-03  0.587E-04  0.132E-03  0.587E-04  0.132E-03  0.587E-04
  19.060  0.427E-03  0.180E-03  0.142E-03  0.600E-04  0.142E-03  0.600E-04  0.142E-03  0.600E-04
  19.080  0.459E-03  0.183E-03  0.153E-03  0.610E-04  0.153E-03  0.610E-04  0.153E-03  0.610E-04
  19.100  0.489E-03  0.185E-03  0.163E-03  0.616E-04  0.163E-03  0.616E-04  0.163E-03  0.616E-04
  19.120  0.517E-03  0.186E-03  0.172E-03  0.619E-04  0.172E-03  0.619E-04  0.172E-03  0.619E-04
  19.140  0.539E-03  0.186E-03  0.180E-03  0.620E-04  0.180E-03  0.620E-04  0.180E-03  0.620E-04
  19.160  0.552E-03  0.186E-03  0.184E-03  0.619E-04  0.184E-03  0.619E-04  0.184E-03  0.619E-04
  19.180  0.555E-03  0.186E-03  0.185E-03  0.619E-04  0.185E-03  0.619E-04  0.185E-03  0.619E-04
  19.200  0.548E-03  0.186E-03  0.183E-03  0.620E-04  0.183E-03  0.620E-04  0.183E-03  0.620E-04
  19.220  0.532E-03  0.187E-03  0.177E-03  0.622E-04  0.177E-03  0.622E-04  0.177E-03  0.622E-04
  19.240  0.511E-03  0.188E-03  0.170E-03  0.627E-04  0.170E-03  0.627E-04  0.170E-03  0.627E-04
  19.260  0.490E-03  0.190E-03  0.163E-03  0.634E-04  0.163E-03  0.634E-04  0.163E-03  0.634E-04
  19.280  0.474E-03  0.193E-03  0.158E-03  0.643E-04  0.158E-03  0.643E-04  0.158E-03  0.643E-04
  19.300  0.469E-03  0.196E-03  0.156E-03  0.653E-04  0.156E-03  0.653E-04  0.156E-03  0.653E-04
  19.320  0.478E-03  0.199E-03  0.159E-03  0.664E-04  0.159E-03  0.664E-04  0.159E-03  0.664E-04
  19.340  0.504E-03  0.202E-03  0.168E-03  0.673E-04  0.168E-03  0.673E-04  0.168E-03  0.673E-04
  19.360  0.545E-03  0.204E-03  0.182E-03  0.679E-04  0.182E-03  0.679E-04  0.182E-03  0.679E-04
  19.380  0.600E-03  0.205E-03  0.200E-03  0.683E-04  0.200E-03  0.683E-04  0.200E-03  0.683E-04
  19.400  0.663E-03  0.205E-03  0.221E-03  0.684E-04  0.221E-03  0.684E-04  0.221E-03  0.684E-04
  19.420  0.726E-03  0.205E-03  0.242E-03  0.683E-04  0.242E-03  0.683E-04  0.242E-03  0.683E-04
  19.440  0.784E-03  0.205E-03  0.261E-03  0.684E-04  0.261E-03  0.684E-04  0.261E-03  0.684E-04
  19.460  0.829E-03  0.206E-03  0.276E-03  0.688E-04  0.276E-03  0.688E-04  0.276E-03  0.688E-04
  19.480  0.858E-03  0.209E-03  0.286E-03  0.698E-04  0.286E-03  0.698E-04  0.286E-03  0.698E-04
  19.500  0.867E-03  0.215E-03  0.289E-03  0.717E-04  0.289E-03  0.717E-04  0.289E-03  0.717E-04
  19.520  0.856E-03  0.224E-03  0.285E-03  0.745E-04  0.285E-03  0.745E-04  0.285E-03  0.745E-04
  19.540  0.827E-03  0.235E-03  0.276E-03  0.783E-04  0.276E-03  0.783E-04  0.276E-03  0.783E-04
  19.560  0.782E-03  0.248E-03  0.261E-03  0.826E-04  0.261E-03  0.826E-04  0.261E-03  0.826E-04
  19.580  0.724E-03  0.262E-03  0.241E-03  0.872E-04  0.241E-03  0.872E-04  0.241E-03  0.872E-04
  19.600  0.657E-03  0.275E-03  0.219E-03  0.916E-04  0.219E-03  0.916E-04  0.219E-03  0.916E-04
  19.620  0.584E-03  0.285E-03  0.195E-03  0.952E-04  0.195E-03  0.952E-04  0.195E-03  0.952E-04
  19.640  0.509E-03  0.293E-03  0.170E-03  0.975E-04  0.170E-03  0.975E-04  0.170E-03  0.975E-04
  19.660  0.433E-03  0.295E-03  0.144E-03  0.983E-04  0.144E-03  0.983E-04  0.144E-03  0.983E-04
  19.680  0.361E-03  0.292E-03  0.120E-03  0.974E-04  0.120E-03  0.974E-04  0.120E-03  0.974E-04
  19.700  0.294E-03  0.285E-03  0.982E-04  0.950E-04  0.982E-04  0.950E-04  0.982E-04  0.950E-04
  19.720  0.236E-03  0.274E-03  0.788E-04  0.912E-04  0.788E-04  0.912E-04  0.788E-04  0.912E-04
  19.740  0.188E-03  0.260E-03  0.627E-04  0.866E-04  0.627E-04  0.866E-04  0.627E-04  0.866E-04
  19.760  0.151E-03  0.245E-03  0.503E-04  0.818E-04  0.503E-04  0.818E-04  0.503E-04  0.818E-04
  19.780  0.125E-03  0.231E-03  0.417E-04  0.771E-04  0.417E-04  0.771E-04  0.417E-04  0.771E-04
  19.800  0.111E-03  0.219E-03  0.370E-04  0.731E-04  0.370E-04  0.731E-04  0.370E-04  0.731E-04
  19.820  0.107E-03  0.210E-03  0.357E-04  0.701E-04  0.357E-04  0.701E-04  0.357E-04  0.701E-04
  19.840  0.112E-03  0.205E-03  0.374E-04  0.683E-04  0.374E-04  0.683E-04  0.374E-04  0.683E-04
  19.860  0.125E-03  0.204E-03  0.416E-04  0.679E-04  0.416E-04  0.679E-04  0.416E-04  0.679E-04
  19.880  0.143E-03  0.207E-03  0.477E-04  0.689E-04  0.477E-04  0.689E-04  0.477E-04  0.689E-04
  19.900  0.165E-03  0.214E-03  0.551E-04  0.714E-04  0.551E-04  0.714E-04  0.551E-04  0.714E-04
  19.920  0.190E-03  0.226E-03  0.635E-04  0.752E-04  0.635E-04  0.752E-04  0.635E-04  0.752E-04
  19.940  0.217E-03  0.241E-03  0.725E-04  0.802E-04  0.725E-04  0.802E-04  0.725E-04  0.802E-04
  19.960  0.246E-03  0.259E-03  0.820E-04  0.862E-04  0.820E-04  0.862E-04  0.820E-04  0.862E-04
  19.980  0.276E-03  0.278E-03  0.919E-04  0.928E-04  0.919E-04  0.928E-04  0.919E-04  0.928E-04
  20.000  0.307E-03  0.299E-03  0.102E-03  0.995E-04  0.102E-03  0.995E-04  0.102E-03  0.995E-04
  20.020  0.339E-03  0.318E-03  0.113E-03  0.106E-03  0.113E-03  0.106E-03  0.113E-03  0.106E-03
  20.040  0.371E-03  0.334E-03  0.124E-03  0.111E-03  0.124E-03  0.111E-03  0.124E-03  0.111E-03
  20.060  0.401E-03  0.347E-03  0.134E-03  0.116E-03  0.134E-03  0.116E-03  0.134E-03  0.116E-03
  20.080  0.428E-03  0.354E-03  0.143E-03  0.118E-03  0.143E-03  0.118E-03  0.143E-03  0.118E-03
  20.100  0.451E-03  0.357E-03  0.150E-03  0.119E-03  0.150E-03  0.119E-03  0.150E-03  0.119E-03
  20.120  0.467E-03  0.354E-03  0.156E-03  0.118E-03  0.156E-03  0.118E-03  0.156E-03  0.118E-03
  20.140  0.477E-03  0.349E-03  0.159E-03  0.116E-03  0.159E-03  0.116E-03  0.159E-03  0.116E-03
  20.160  0.481E-03  0.341E-03  0.160E-03  0.114E-03  0.160E-03  0.114E-03  0.160E-03  0.114E-03
  20.180  0.481E-03  0.333E-03  0.160E-03  0.111E-03  0.160E-03  0.111E-03  0.160E-03  0.111E-03
  20.200  0.478E-03  0.327E-03  0.159E-03  0.109E-03  0.159E-03  0.109E-03  0.159E-03  0.109E-03
  20.220  0.476E-03  0.323E-03  0.159E-03  0.108E-03  0.159E-03  0.108E-03  0.159E-03  0.108E-03
  20.240  0.476E-03  0.323E-03  0.159E-03  0.108E-03  0.159E-03  0.108E-03  0.159E-03  0.108E-03
  20.260  0.479E-03  0.326E-03  0.160E-03  0.109E-03  0.160E-03  0.109E-03  0.160E-03  0.109E-03
  20.280  0.487E-03  0.331E-03  0.162E-03  0.110E-03  0.162E-03  0.110E-03  0.162E-03  0.110E-03
  20.300  0.499E-03  0.338E-03  0.166E-03  0.113E-03  0.166E-03  0.113E-03  0.166E-03  0.113E-03
  20.320  0.513E-03  0.346E-03  0.171E-03  0.115E-03  0.171E-03  0.115E-03  0.171E-03  0.115E-03
  20.340  0.527E-03  0.355E-03  0.176E-03  0.118E-03  0.176E-03  0.118E-03  0.176E-03  0.118E-03
  20.360  0.539E-03  0.363E-03  0.180E-03  0.121E-03  0.180E-03  0.121E-03  0.180E-03  0.121E-03
  20.380  0.548E-03  0.371E-03  0.183E-03  0.124E-03  0.183E-03  0.124E-03  0.183E-03  0.124E-03
  20.400  0.552E-03  0.379E-03  0.184E-03  0.126E-03  0.184E-03  0.126E-03  0.184E-03  0.126E-03
  20.420  0.551E-03  0.387E-03  0.184E-03  0.129E-03  0.184E-03  0.129E-03  0.184E-03  0.129E-03
  20.440  0.549E-03  0.395E-03  0.183E-03  0.132E-03  0.183E-03  0.132E-03  0.183E-03  0.132E-03
  20.460  0.547E-03  0.403E-03  0.182E-03  0.134E-03  0.182E-03  0.134E-03  0.182E-03  0.134E-03
  20.480  0.549E-03  0.410E-03  0.183E-03  0.137E-03  0.183E-03  0.137E-03  0.183E-03  0.137E-03
  20.500  0.558E-03  0.415E-03  0.186E-03  0.138E-03  0.186E-03  0.138E-03  0.186E-03  0.138E-03
  20.520  0.576E-03  0.418E-03  0.192E-03  0.139E-03  0.192E-03  0.139E-03  0.192E-03  0.139E-03
  20.540  0.602E-03  0.417E-03  0.201E-03  0.139E-03  0.201E-03  0.139E-03  0.201E-03  0.139E-03
  20.560  0.633E-03  0.412E-03  0.211E-03  0.137E-03  0.211E-03  0.137E-03  0.211E-03  0.137E-03
  20.580  0.667E-03  0.402E-03  0.222E-03  0.134E-03  0.222E-03  0.134E-03  0.222E-03  0.134E-03
  20.600  0.698E-03  0.386E-03  0.233E-03  0.129E-03  0.233E-03  0.129E-03  0.233E-03  0.129E-03
  20.620  0.721E-03  0.364E-03  0.240E-03  0.121E-03  0.240E-03  0.121E-03  0.240E-03  0.121E-03
  20.640  0.734E-03  0.337E-03  0.245E-03  0.112E-03  0.245E-03  0.112E-03  0.245E-03  0.112E-03
  20.660  0.737E-03  0.306E-03  0.246E-03  0.102E-03  0.246E-03  0.102E-03  0.246E-03  0.102E-03
  20.680  0.729E-03  0.273E-03  0.243E-03  0.909E-04  0.243E-03  0.909E-04  0.243E-03  0.909E-04
  20.700  0.714E-03  0.240E-03  0.238E-03  0.798E-04  0.238E-03  0.798E-04  0.238E-03  0.798E-04
  20.720  0.695E-03  0.208E-03  0.232E-03  0.694E-04  0.232E-03  0.694E-04  0.232E-03  0.694E-04
  20.740  0.675E-03  0.180E-03  0.225E-03  0.602E-04  0.225E-03  0.602E-04  0.225E-03  0.602E-04
  20.760  0.655E-03  0.158E-03  0.218E-03  0.526E-04  0.218E-03  0.526E-04  0.218E-03  0.526E-04
  20.780  0.638E-03  0.140E-03  0.213E-03  0.468E-04  0.213E-03  0.468E-04  0.213E-03  0.468E-04
  20.800  0.621E-03  0.128E-03  0.207E-03  0.428E-04  0.207E-03  0.428E-04  0.207E-03  0.428E-04
  20.820  0.603E-03  0.122E-03  0.201E-03  0.405E-04  0.201E-03  0.405E-04  0.201E-03  0.405E-04
  20.840  0.584E-03  0.119E-03  0.195E-03  0.395E-04  0.195E-03  0.395E-04  0.195E-03  0.395E-04
  20.860  0.560E-03  0.119E-03  0.187E-03  0.396E-04  0.187E-03  0.396E-04  0.187E-03  0.396E-04
  20.880  0.533E-03  0.121E-03  0.178E-03  0.405E-04  0.178E-03  0.405E-04  0.178E-03  0.405E-04
  20.900  0.501E-03  0.126E-03  0.167E-03  0.419E-04  0.167E-03  0.419E-04  0.167E-03  0.419E-04
  20.920  0.467E-03  0.131E-03  0.156E-03  0.438E-04  0.156E-03  0.438E-04  0.156E-03  0.438E-04
  20.940  0.431E-03  0.138E-03  0.144E-03  0.461E-04  0.144E-03  0.461E-04  0.144E-03  0.461E-04
  20.960  0.394E-03  0.147E-03  0.131E-03  0.490E-04  0.131E-03  0.490E-04  0.131E-03  0.490E-04
  20.980  0.359E-03  0.158E-03  0.120E-03  0.526E-04  0.120E-03  0.526E-04  0.120E-03  0.526E-04
  21.000  0.327E-03  0.171E-03  0.109E-03  0.570E-04  0.109E-03  0.570E-04  0.109E-03  0.570E-04
  21.020  0.298E-03  0.187E-03  0.994E-04  0.622E-04  0.994E-04  0.622E-04  0.994E-04  0.622E-04
  21.040  0.275E-03  0.205E-03  0.917E-04  0.682E-04  0.917E-04  0.682E-04  0.917E-04  0.682E-04
  21.060  0.258E-03  0.224E-03  0.860E-04  0.747E-04  0.860E-04  0.747E-04  0.860E-04  0.747E-04
  21.080  0.248E-03  0.245E-03  0.828E-04  0.817E-04  0.828E-04  0.817E-04  0.828E-04  0.817E-04
  21.100  0.247E-03  0.267E-03  0.823E-04  0.890E-04  0.823E-04  0.890E-04  0.823E-04  0.890E-04
  21.120  0.254E-03  0.289E-03  0.846E-04  0.963E-04  0.846E-04  0.963E-04  0.846E-04  0.963E-04
  21.140  0.269E-03  0.311E-03  0.896E-04  0.104E-03  0.896E-04  0.104E-03  0.896E-04  0.104E-03
  21.160  0.291E-03  0.332E-03  0.969E-04  0.111E-03  0.969E-04  0.111E-03  0.969E-04  0.111E-03
  21.180  0.317E-03  0.353E-03  0.106E-03  0.118E-03  0.106E-03  0.118E-03  0.106E-03  0.118E-03
  21.200  0.347E-03  0.374E-03  0.116E-03  0.125E-03  0.116E-03  0.125E-03  0.116E-03  0.125E-03
  21.220  0.375E-03  0.393E-03  0.125E-03  0.131E-03  0.125E-03  0.131E-03  0.125E-03  0.131E-03
  21.240  0.401E-03  0.410E-03  0.134E-03  0.137E-03  0.134E-03  0.137E-03  0.134E-03  0.137E-03
  21.260  0.422E-03  0.423E-03  0.141E-03  0.141E-03  0.141E-03  0.141E-03  0.141E-03  0.141E-03
  21.280  0.438E-03  0.432E-03  0.146E-03  0.144E-03  0.146E-03  0.144E-03  0.146E-03  0.144E-03
  21.300  0.446E-03  0.435E-03  0.149E-03  0.145E-03  0.149E-03  0.145E-03  0.149E-03  0.145E-03
  21.320  0.448E-03  0.432E-03  0.149E-03  0.144E-03  0.149E-03  0.144E-03  0.149E-03  0.144E-03
  21.340  0.443E-03  0.423E-03  0.148E-03  0.141E-03  0.148E-03  0.141E-03  0.148E-03  0.141E-03
  21.360  0.432E-03  0.408E-03  0.144E-03  0.136E-03  0.144E-03  0.136E-03  0.144E-03  0.136E-03
  21.380  0.416E-03  0.388E-03  0.139E-03  0.129E-03  0.139E-03  0.129E-03  0.139E-03  0.129E-03
  21.400  0.395E-03  0.365E-03  0.132E-03  0.122E-03  0.132E-03  0.122E-03  0.132E-03  0.122E-03
  21.420  0.373E-03  0.340E-03  0.124E-03  0.113E-03  0.124E-03  0.113E-03  0.124E-03  0.113E-03
  21.440  0.349E-03  0.317E-03  0.116E-03  0.106E-03  0.116E-03  0.106E-03  0.116E-03  0.106E-03
  21.460  0.326E-03  0.296E-03  0.109E-03  0.988E-04  0.109E-03  0.988E-04  0.109E-03  0.988E-04
  21.480  0.306E-03  0.281E-03  0.102E-03  0.937E-04  0.102E-03  0.937E-04  0.102E-03  0.937E-04
  21.500  0.290E-03  0.273E-03  0.966E-04  0.911E-04  0.966E-04  0.911E-04  0.966E-04  0.911E-04
  21.520  0.278E-03  0.275E-03  0.928E-04  0.916E-04  0.928E-04  0.916E-04  0.928E-04  0.916E-04
  21.540  0.272E-03  0.287E-03  0.908E-04  0.956E-04  0.908E-04  0.956E-04  0.908E-04  0.956E-04
  21.560  0.272E-03  0.309E-03  0.907E-04  0.103E-03  0.907E-04  0.103E-03  0.907E-04  0.103E-03
  21.580  0.278E-03  0.340E-03  0.926E-04  0.113E-03  0.926E-04  0.113E-03  0.926E-04  0.113E-03
  21.600  0.289E-03  0.376E-03  0.964E-04  0.125E-03  0.964E-04  0.125E-03  0.964E-04  0.125E-03
  21.620  0.305E-03  0.415E-03  0.102E-03  0.138E-03  0.102E-03  0.138E-03  0.102E-03  0.138E-03
  21.640  0.324E-03  0.451E-03  0.108E-03  0.150E-03  0.108E-03  0.150E-03  0.108E-03  0.150E-03
  21.660  0.344E-03  0.480E-03  0.115E-03  0.160E-03  0.115E-03  0.160E-03  0.115E-03  0.160E-03
  21.680  0.361E-03  0.497E-03  0.120E-03  0.166E-03  0.120E-03  0.166E-03  0.120E-03  0.166E-03
  21.700  0.373E-03  0.502E-03  0.124E-03  0.167E-03  0.124E-03  0.167E-03  0.124E-03  0.167E-03
  21.720  0.377E-03  0.494E-03  0.126E-03  0.165E-03  0.126E-03  0.165E-03  0.126E-03  0.165E-03
  21.740  0.372E-03  0.475E-03  0.124E-03  0.158E-03  0.124E-03  0.158E-03  0.124E-03  0.158E-03
  21.760  0.358E-03  0.447E-03  0.119E-03  0.149E-03  0.119E-03  0.149E-03  0.119E-03  0.149E-03
  21.780  0.338E-03  0.415E-03  0.113E-03  0.138E-03  0.113E-03  0.138E-03  0.113E-03  0.138E-03
  21.800  0.312E-03  0.382E-03  0.104E-03  0.127E-03  0.104E-03  0.127E-03  0.104E-03  0.127E-03
  21.820  0.285E-03  0.351E-03  0.951E-04  0.117E-03  0.951E-04  0.117E-03  0.951E-04  0.117E-03
  21.840  0.260E-03  0.323E-03  0.865E-04  0.108E-03  0.865E-04  0.108E-03  0.865E-04  0.108E-03
  21.860  0.237E-03  0.300E-03  0.790E-04  0.998E-04  0.790E-04  0.998E-04  0.790E-04  0.998E-04
  21.880  0.219E-03  0.280E-03  0.729E-04  0.933E-04  0.729E-04  0.933E-04  0.729E-04  0.933E-04
  21.900  0.205E-03  0.263E-03  0.684E-04  0.878E-04  0.684E-04  0.878E-04  0.684E-04  0.878E-04
  21.920  0.197E-03  0.250E-03  0.655E-04  0.833E-04  0.655E-04  0.833E-04  0.655E-04  0.833E-04
  21.940  0.192E-03  0.239E-03  0.640E-04  0.797E-04  0.640E-04  0.797E-04  0.640E-04  0.797E-04
  21.960  0.191E-03  0.232E-03  0.638E-04  0.772E-04  0.638E-04  0.772E-04  0.638E-04  0.772E-04
  21.980  0.194E-03  0.228E-03  0.646E-04  0.759E-04  0.646E-04  0.759E-04  0.646E-04  0.759E-04
  22.000  0.199E-03  0.228E-03  0.663E-04  0.762E-04  0.663E-04  0.762E-04  0.663E-04  0.762E-04
  22.020  0.206E-03  0.235E-03  0.685E-04  0.782E-04  0.685E-04  0.782E-04  0.685E-04  0.782E-04
  22.040  0.213E-03  0.246E-03  0.711E-04  0.821E-04  0.711E-04  0.821E-04  0.711E-04  0.821E-04
  22.060  0.221E-03  0.263E-03  0.738E-04  0.875E-04  0.738E-04  0.875E-04  0.738E-04  0.875E-04
  22.080  0.229E-03  0.283E-03  0.765E-04  0.942E-04  0.765E-04  0.942E-04  0.765E-04  0.942E-04
  22.100  0.238E-03  0.305E-03  0.793E-04  0.102E-03  0.793E-04  0.102E-03  0.793E-04  0.102E-03
  22.120  0.248E-03  0.326E-03  0.828E-04  0.109E-03  0.828E-04  0.109E-03  0.828E-04  0.109E-03
  22.140  0.262E-03  0.344E-03  0.875E-04  0.115E-03  0.875E-04  0.115E-03  0.875E-04  0.115E-03
  22.160  0.283E-03  0.358E-03  0.943E-04  0.119E-03  0.943E-04  0.119E-03  0.943E-04  0.119E-03
  22.180  0.312E-03  0.365E-03  0.104E-03  0.122E-03  0.104E-03  0.122E-03  0.104E-03  0.122E-03
  22.200  0.351E-03  0.365E-03  0.117E-03  0.122E-03  0.117E-03  0.122E-03  0.117E-03  0.122E-03
  22.220  0.399E-03  0.358E-03  0.133E-03  0.119E-03  0.133E-03  0.119E-03  0.133E-03  0.119E-03
  22.240  0.456E-03  0.347E-03  0.152E-03  0.116E-03  0.152E-03  0.116E-03  0.152E-03  0.116E-03
  22.260  0.516E-03  0.333E-03  0.172E-03  0.111E-03  0.172E-03  0.111E-03  0.172E-03  0.111E-03
  22.280  0.574E-03  0.319E-03  0.191E-03  0.106E-03  0.191E-03  0.106E-03  0.191E-03  0.106E-03
  22.300  0.625E-03  0.309E-03  0.208E-03  0.103E-03  0.208E-03  0.103E-03  0.208E-03  0.103E-03
  22.320  0.662E-03  0.305E-03  0.221E-03  0.102E-03  0.221E-03  0.102E-03  0.221E-03  0.102E-03
  22.340  0.680E-03  0.310E-03  0.227E-03  0.103E-03  0.227E-03  0.103E-03  0.227E-03  0.103E-03
  22.360  0.679E-03  0.323E-03  0.226E-03  0.108E-03  0.226E-03  0.108E-03  0.226E-03  0.108E-03
  22.380  0.656E-03  0.346E-03  0.219E-03  0.115E-03  0.219E-03  0.115E-03  0.219E-03  0.115E-03
  22.400  0.616E-03  0.376E-03  0.205E-03  0.125E-03  0.205E-03  0.125E-03  0.205E-03  0.125E-03
  22.420  0.562E-03  0.412E-03  0.187E-03  0.137E-03  0.187E-03  0.137E-03  0.187E-03  0.137E-03
  22.440  0.501E-03  0.451E-03  0.167E-03  0.150E-03  0.167E-03  0.150E-03  0.167E-03  0.150E-03
  22.460  0.438E-03  0.489E-03  0.146E-03  0.163E-03  0.146E-03  0.163E-03  0.146E-03  0.163E-03
  22.480  0.379E-03  0.523E-03  0.126E-03  0.174E-03  0.126E-03  0.174E-03  0.126E-03  0.174E-03
  22.500  0.328E-03  0.552E-03  0.109E-03  0.184E-03  0.109E-03  0.184E-03  0.109E-03  0.184E-03
  22.520  0.286E-03  0.574E-03  0.953E-04  0.191E-03  0.953E-04  0.191E-03  0.953E-04  0.191E-03
  22.540  0.253E-03  0.588E-03  0.844E-04  0.196E-03  0.844E-04  0.196E-03  0.844E-04  0.196E-03
  22.560  0.229E-03  0.595E-03  0.762E-04  0.198E-03  0.762E-04  0.198E-03  0.762E-04  0.198E-03
  22.580  0.209E-03  0.596E-03  0.697E-04  0.199E-03  0.697E-04  0.199E-03  0.697E-04  0.199E-03
  22.600  0.193E-03  0.592E-03  0.642E-04  0.197E-03  0.642E-04  0.197E-03  0.642E-04  0.197E-03
  22.620  0.177E-03  0.584E-03  0.590E-04  0.195E-03  0.590E-04  0.195E-03  0.590E-04  0.195E-03
  22.640  0.161E-03  0.572E-03  0.538E-04  0.191E-03  0.538E-04  0.191E-03  0.538E-04  0.191E-03
  22.660  0.146E-03  0.556E-03  0.488E-04  0.185E-03  0.488E-04  0.185E-03  0.488E-04  0.185E-03
  22.680  0.133E-03  0.535E-03  0.442E-04  0.178E-03  0.442E-04  0.178E-03  0.442E-04  0.178E-03
  22.700  0.122E-03  0.509E-03  0.408E-04  0.170E-03  0.408E-04  0.170E-03  0.408E-04  0.170E-03
  22.720  0.117E-03  0.477E-03  0.391E-04  0.159E-03  0.391E-04  0.159E-03  0.391E-04  0.159E-03
  22.740  0.119E-03  0.441E-03  0.397E-04  0.147E-03  0.397E-04  0.147E-03  0.397E-04  0.147E-03
  22.760  0.128E-03  0.401E-03  0.428E-04  0.134E-03  0.428E-04  0.134E-03  0.428E-04  0.134E-03
  22.780  0.145E-03  0.360E-03  0.485E-04  0.120E-03  0.485E-04  0.120E-03  0.485E-04  0.120E-03
  22.800  0.169E-03  0.319E-03  0.562E-04  0.106E-03  0.562E-04  0.106E-03  0.562E-04  0.106E-03
  22.820  0.196E-03  0.281E-03  0.655E-04  0.936E-04  0.655E-04  0.936E-04  0.655E-04  0.936E-04
  22.840  0.226E-03  0.248E-03  0.753E-04  0.827E-04  0.753E-04  0.827E-04  0.753E-04  0.827E-04
  22.860  0.254E-03  0.222E-03  0.847E-04  0.739E-04  0.847E-04  0.739E-04  0.847E-04  0.739E-04
  22.880  0.278E-03  0.202E-03  0.927E-04  0.674E-04  0.927E-04  0.674E-04  0.927E-04  0.674E-04
  22.900  0.296E-03  0.190E-03  0.986E-04  0.632E-04  0.986E-04  0.632E-04  0.986E-04  0.632E-04
  22.920  0.305E-03  0.183E-03  0.102E-03  0.611E-04  0.102E-03  0.611E-04  0.102E-03  0.611E-04
  22.940  0.306E-03  0.182E-03  0.102E-03  0.607E-04  0.102E-03  0.607E-04  0.102E-03  0.607E-04
  22.960  0.299E-03  0.185E-03  0.997E-04  0.617E-04  0.997E-04  0.617E-04  0.997E-04  0.617E-04
  22.980  0.284E-03  0.191E-03  0.947E-04  0.637E-04  0.947E-04  0.637E-04  0.947E-04  0.637E-04
  23.000  0.264E-03  0.199E-03  0.879E-04  0.665E-04  0.879E-04  0.665E-04  0.879E-04  0.665E-04
  23.020  0.239E-03  0.209E-03  0.798E-04  0.697E-04  0.798E-04  0.697E-04  0.798E-04  0.697E-04
