# E (eV)  ldosup(E)  ldosdw(E) pdosup(E)  pdosdw(E) 
  13.000  0.240E-02  0.399E-02  0.240E-02  0.399E-02
  13.020  0.231E-02  0.376E-02  0.231E-02  0.376E-02
  13.040  0.232E-02  0.352E-02  0.232E-02  0.352E-02
  13.060  0.245E-02  0.326E-02  0.245E-02  0.326E-02
  13.080  0.269E-02  0.300E-02  0.269E-02  0.300E-02
  13.100  0.305E-02  0.276E-02  0.305E-02  0.276E-02
  13.120  0.350E-02  0.257E-02  0.350E-02  0.257E-02
  13.140  0.400E-02  0.243E-02  0.400E-02  0.243E-02
  13.160  0.453E-02  0.236E-02  0.453E-02  0.236E-02
  13.180  0.503E-02  0.237E-02  0.503E-02  0.237E-02
  13.200  0.547E-02  0.244E-02  0.547E-02  0.244E-02
  13.220  0.581E-02  0.256E-02  0.581E-02  0.256E-02
  13.240  0.603E-02  0.269E-02  0.603E-02  0.269E-02
  13.260  0.610E-02  0.281E-02  0.610E-02  0.281E-02
  13.280  0.603E-02  0.289E-02  0.603E-02  0.289E-02
  13.300  0.583E-02  0.292E-02  0.583E-02  0.292E-02
  13.320  0.550E-02  0.288E-02  0.550E-02  0.288E-02
  13.340  0.509E-02  0.278E-02  0.509E-02  0.278E-02
  13.360  0.462E-02  0.265E-02  0.462E-02  0.265E-02
  13.380  0.413E-02  0.249E-02  0.413E-02  0.249E-02
  13.400  0.365E-02  0.235E-02  0.365E-02  0.235E-02
  13.420  0.322E-02  0.225E-02  0.322E-02  0.225E-02
  13.440  0.285E-02  0.222E-02  0.285E-02  0.222E-02
  13.460  0.256E-02  0.228E-02  0.256E-02  0.228E-02
  13.480  0.235E-02  0.243E-02  0.235E-02  0.243E-02
  13.500  0.221E-02  0.267E-02  0.221E-02  0.267E-02
  13.520  0.213E-02  0.297E-02  0.213E-02  0.297E-02
  13.540  0.211E-02  0.330E-02  0.211E-02  0.330E-02
  13.560  0.214E-02  0.362E-02  0.214E-02  0.362E-02
  13.580  0.220E-02  0.391E-02  0.220E-02  0.391E-02
  13.600  0.230E-02  0.414E-02  0.230E-02  0.414E-02
  13.620  0.242E-02  0.429E-02  0.242E-02  0.429E-02
  13.640  0.256E-02  0.437E-02  0.256E-02  0.437E-02
  13.660  0.270E-02  0.440E-02  0.270E-02  0.440E-02
  13.680  0.283E-02  0.440E-02  0.283E-02  0.440E-02
  13.700  0.294E-02  0.441E-02  0.294E-02  0.441E-02
  13.720  0.302E-02  0.444E-02  0.302E-02  0.444E-02
  13.740  0.307E-02  0.451E-02  0.307E-02  0.451E-02
  13.760  0.309E-02  0.462E-02  0.309E-02  0.462E-02
  13.780  0.308E-02  0.475E-02  0.308E-02  0.475E-02
  13.800  0.305E-02  0.486E-02  0.305E-02  0.486E-02
  13.820  0.301E-02  0.493E-02  0.301E-02  0.493E-02
  13.840  0.297E-02  0.493E-02  0.297E-02  0.493E-02
  13.860  0.292E-02  0.484E-02  0.292E-02  0.484E-02
  13.880  0.287E-02  0.465E-02  0.287E-02  0.465E-02
  13.900  0.281E-02  0.437E-02  0.281E-02  0.437E-02
  13.920  0.274E-02  0.402E-02  0.274E-02  0.402E-02
  13.940  0.264E-02  0.361E-02  0.264E-02  0.361E-02
  13.960  0.253E-02  0.319E-02  0.253E-02  0.319E-02
  13.980  0.239E-02  0.278E-02  0.239E-02  0.278E-02
  14.000  0.223E-02  0.240E-02  0.223E-02  0.240E-02
  14.020  0.205E-02  0.208E-02  0.205E-02  0.208E-02
  14.040  0.186E-02  0.185E-02  0.186E-02  0.185E-02
  14.060  0.167E-02  0.170E-02  0.167E-02  0.170E-02
  14.080  0.148E-02  0.164E-02  0.148E-02  0.164E-02
  14.100  0.130E-02  0.167E-02  0.130E-02  0.167E-02
  14.120  0.112E-02  0.176E-02  0.112E-02  0.176E-02
  14.140  0.962E-03  0.189E-02  0.962E-03  0.189E-02
  14.160  0.815E-03  0.203E-02  0.815E-03  0.203E-02
  14.180  0.685E-03  0.216E-02  0.685E-03  0.216E-02
  14.200  0.571E-03  0.226E-02  0.571E-03  0.226E-02
  14.220  0.476E-03  0.231E-02  0.476E-03  0.231E-02
  14.240  0.398E-03  0.231E-02  0.398E-03  0.231E-02
  14.260  0.338E-03  0.227E-02  0.338E-03  0.227E-02
  14.280  0.293E-03  0.221E-02  0.293E-03  0.221E-02
  14.300  0.263E-03  0.215E-02  0.263E-03  0.215E-02
  14.320  0.245E-03  0.213E-02  0.245E-03  0.213E-02
  14.340  0.235E-03  0.214E-02  0.235E-03  0.214E-02
  14.360  0.230E-03  0.221E-02  0.230E-03  0.221E-02
  14.380  0.227E-03  0.234E-02  0.227E-03  0.234E-02
  14.400  0.224E-03  0.251E-02  0.224E-03  0.251E-02
  14.420  0.218E-03  0.273E-02  0.218E-03  0.273E-02
  14.440  0.211E-03  0.296E-02  0.211E-03  0.296E-02
  14.460  0.200E-03  0.319E-02  0.200E-03  0.319E-02
  14.480  0.188E-03  0.340E-02  0.188E-03  0.340E-02
  14.500  0.176E-03  0.359E-02  0.176E-03  0.359E-02
  14.520  0.164E-03  0.373E-02  0.164E-03  0.373E-02
  14.540  0.153E-03  0.382E-02  0.153E-03  0.382E-02
  14.560  0.144E-03  0.387E-02  0.144E-03  0.387E-02
  14.580  0.136E-03  0.386E-02  0.136E-03  0.386E-02
  14.600  0.131E-03  0.379E-02  0.131E-03  0.379E-02
  14.620  0.126E-03  0.368E-02  0.126E-03  0.368E-02
  14.640  0.123E-03  0.351E-02  0.123E-03  0.351E-02
  14.660  0.122E-03  0.329E-02  0.122E-03  0.329E-02
  14.680  0.121E-03  0.304E-02  0.121E-03  0.304E-02
  14.700  0.123E-03  0.276E-02  0.123E-03  0.276E-02
  14.720  0.127E-03  0.246E-02  0.127E-03  0.246E-02
  14.740  0.134E-03  0.216E-02  0.134E-03  0.216E-02
  14.760  0.146E-03  0.188E-02  0.146E-03  0.188E-02
  14.780  0.164E-03  0.164E-02  0.164E-03  0.164E-02
  14.800  0.187E-03  0.145E-02  0.187E-03  0.145E-02
  14.820  0.216E-03  0.131E-02  0.216E-03  0.131E-02
  14.840  0.251E-03  0.123E-02  0.251E-03  0.123E-02
  14.860  0.291E-03  0.121E-02  0.291E-03  0.121E-02
  14.880  0.334E-03  0.122E-02  0.334E-03  0.122E-02
  14.900  0.379E-03  0.126E-02  0.379E-03  0.126E-02
  14.920  0.424E-03  0.132E-02  0.424E-03  0.132E-02
  14.940  0.467E-03  0.140E-02  0.467E-03  0.140E-02
  14.960  0.508E-03  0.147E-02  0.508E-03  0.147E-02
  14.980  0.544E-03  0.154E-02  0.544E-03  0.154E-02
  15.000  0.577E-03  0.161E-02  0.577E-03  0.161E-02
  15.020  0.605E-03  0.166E-02  0.605E-03  0.166E-02
  15.040  0.629E-03  0.170E-02  0.629E-03  0.170E-02
  15.060  0.649E-03  0.173E-02  0.649E-03  0.173E-02
  15.080  0.664E-03  0.174E-02  0.664E-03  0.174E-02
  15.100  0.675E-03  0.173E-02  0.675E-03  0.173E-02
  15.120  0.685E-03  0.171E-02  0.685E-03  0.171E-02
  15.140  0.694E-03  0.168E-02  0.694E-03  0.168E-02
  15.160  0.708E-03  0.164E-02  0.708E-03  0.164E-02
  15.180  0.732E-03  0.161E-02  0.732E-03  0.161E-02
  15.200  0.772E-03  0.158E-02  0.772E-03  0.158E-02
  15.220  0.833E-03  0.157E-02  0.833E-03  0.157E-02
  15.240  0.919E-03  0.157E-02  0.919E-03  0.157E-02
  15.260  0.103E-02  0.157E-02  0.103E-02  0.157E-02
  15.280  0.117E-02  0.158E-02  0.117E-02  0.158E-02
  15.300  0.134E-02  0.158E-02  0.134E-02  0.158E-02
  15.320  0.153E-02  0.158E-02  0.153E-02  0.158E-02
  15.340  0.174E-02  0.155E-02  0.174E-02  0.155E-02
  15.360  0.197E-02  0.151E-02  0.197E-02  0.151E-02
  15.380  0.222E-02  0.145E-02  0.222E-02  0.145E-02
  15.400  0.248E-02  0.138E-02  0.248E-02  0.138E-02
  15.420  0.274E-02  0.130E-02  0.274E-02  0.130E-02
  15.440  0.300E-02  0.121E-02  0.300E-02  0.121E-02
  15.460  0.324E-02  0.113E-02  0.324E-02  0.113E-02
  15.480  0.345E-02  0.105E-02  0.345E-02  0.105E-02
  15.500  0.362E-02  0.967E-03  0.362E-02  0.967E-03
  15.520  0.374E-02  0.893E-03  0.374E-02  0.893E-03
  15.540  0.380E-02  0.820E-03  0.380E-02  0.820E-03
  15.560  0.381E-02  0.748E-03  0.381E-02  0.748E-03
  15.580  0.376E-02  0.676E-03  0.376E-02  0.676E-03
  15.600  0.366E-02  0.605E-03  0.366E-02  0.605E-03
  15.620  0.352E-02  0.536E-03  0.352E-02  0.536E-03
  15.640  0.333E-02  0.472E-03  0.333E-02  0.472E-03
  15.660  0.311E-02  0.414E-03  0.311E-02  0.414E-03
  15.680  0.287E-02  0.363E-03  0.287E-02  0.363E-03
  15.700  0.261E-02  0.321E-03  0.261E-02  0.321E-03
  15.720  0.233E-02  0.285E-03  0.233E-02  0.285E-03
  15.740  0.205E-02  0.256E-03  0.205E-02  0.256E-03
  15.760  0.178E-02  0.231E-03  0.178E-02  0.231E-03
  15.780  0.153E-02  0.208E-03  0.153E-02  0.208E-03
  15.800  0.130E-02  0.188E-03  0.130E-02  0.188E-03
  15.820  0.111E-02  0.168E-03  0.111E-02  0.168E-03
  15.840  0.948E-03  0.150E-03  0.948E-03  0.150E-03
  15.860  0.824E-03  0.134E-03  0.824E-03  0.134E-03
  15.880  0.733E-03  0.119E-03  0.733E-03  0.119E-03
  15.900  0.675E-03  0.106E-03  0.675E-03  0.106E-03
  15.920  0.645E-03  0.954E-04  0.645E-03  0.954E-04
  15.940  0.639E-03  0.868E-04  0.639E-03  0.868E-04
  15.960  0.651E-03  0.801E-04  0.651E-03  0.801E-04
  15.980  0.677E-03  0.747E-04  0.677E-03  0.747E-04
  16.000  0.712E-03  0.701E-04  0.712E-03  0.701E-04
  16.020  0.750E-03  0.659E-04  0.750E-03  0.659E-04
  16.040  0.789E-03  0.617E-04  0.789E-03  0.617E-04
  16.060  0.826E-03  0.574E-04  0.826E-03  0.574E-04
  16.080  0.861E-03  0.531E-04  0.861E-03  0.531E-04
  16.100  0.895E-03  0.490E-04  0.895E-03  0.490E-04
  16.120  0.930E-03  0.455E-04  0.930E-03  0.455E-04
  16.140  0.965E-03  0.430E-04  0.965E-03  0.430E-04
  16.160  0.100E-02  0.418E-04  0.100E-02  0.418E-04
  16.180  0.103E-02  0.422E-04  0.103E-02  0.422E-04
  16.200  0.106E-02  0.442E-04  0.106E-02  0.442E-04
  16.220  0.108E-02  0.478E-04  0.108E-02  0.478E-04
  16.240  0.108E-02  0.529E-04  0.108E-02  0.529E-04
  16.260  0.107E-02  0.595E-04  0.107E-02  0.595E-04
  16.280  0.103E-02  0.674E-04  0.103E-02  0.674E-04
  16.300  0.981E-03  0.767E-04  0.981E-03  0.767E-04
  16.320  0.912E-03  0.873E-04  0.912E-03  0.873E-04
  16.340  0.831E-03  0.994E-04  0.831E-03  0.994E-04
  16.360  0.744E-03  0.113E-03  0.744E-03  0.113E-03
  16.380  0.655E-03  0.128E-03  0.655E-03  0.128E-03
  16.400  0.568E-03  0.145E-03  0.568E-03  0.145E-03
  16.420  0.487E-03  0.165E-03  0.487E-03  0.165E-03
  16.440  0.413E-03  0.186E-03  0.413E-03  0.186E-03
  16.460  0.347E-03  0.210E-03  0.347E-03  0.210E-03
  16.480  0.291E-03  0.236E-03  0.291E-03  0.236E-03
  16.500  0.243E-03  0.266E-03  0.243E-03  0.266E-03
  16.520  0.204E-03  0.300E-03  0.204E-03  0.300E-03
  16.540  0.173E-03  0.337E-03  0.173E-03  0.337E-03
  16.560  0.150E-03  0.378E-03  0.150E-03  0.378E-03
  16.580  0.136E-03  0.424E-03  0.136E-03  0.424E-03
  16.600  0.128E-03  0.474E-03  0.128E-03  0.474E-03
  16.620  0.127E-03  0.528E-03  0.127E-03  0.528E-03
  16.640  0.131E-03  0.586E-03  0.131E-03  0.586E-03
  16.660  0.139E-03  0.648E-03  0.139E-03  0.648E-03
  16.680  0.152E-03  0.712E-03  0.152E-03  0.712E-03
  16.700  0.168E-03  0.779E-03  0.168E-03  0.779E-03
  16.720  0.187E-03  0.847E-03  0.187E-03  0.847E-03
  16.740  0.208E-03  0.916E-03  0.208E-03  0.916E-03
  16.760  0.233E-03  0.984E-03  0.233E-03  0.984E-03
  16.780  0.259E-03  0.105E-02  0.259E-03  0.105E-02
  16.800  0.287E-03  0.111E-02  0.287E-03  0.111E-02
  16.820  0.317E-03  0.117E-02  0.317E-03  0.117E-02
  16.840  0.346E-03  0.122E-02  0.346E-03  0.122E-02
  16.860  0.374E-03  0.127E-02  0.374E-03  0.127E-02
  16.880  0.399E-03  0.131E-02  0.399E-03  0.131E-02
  16.900  0.419E-03  0.136E-02  0.419E-03  0.136E-02
  16.920  0.431E-03  0.142E-02  0.431E-03  0.142E-02
  16.940  0.434E-03  0.149E-02  0.434E-03  0.149E-02
  16.960  0.428E-03  0.158E-02  0.428E-03  0.158E-02
  16.980  0.412E-03  0.168E-02  0.412E-03  0.168E-02
  17.000  0.389E-03  0.181E-02  0.389E-03  0.181E-02
  17.020  0.360E-03  0.194E-02  0.360E-03  0.194E-02
  17.040  0.329E-03  0.209E-02  0.329E-03  0.209E-02
  17.060  0.300E-03  0.223E-02  0.300E-03  0.223E-02
  17.080  0.275E-03  0.238E-02  0.275E-03  0.238E-02
  17.100  0.257E-03  0.252E-02  0.257E-03  0.252E-02
  17.120  0.249E-03  0.266E-02  0.249E-03  0.266E-02
  17.140  0.250E-03  0.279E-02  0.250E-03  0.279E-02
  17.160  0.262E-03  0.292E-02  0.262E-03  0.292E-02
  17.180  0.284E-03  0.304E-02  0.284E-03  0.304E-02
  17.200  0.315E-03  0.315E-02  0.315E-03  0.315E-02
  17.220  0.354E-03  0.325E-02  0.354E-03  0.325E-02
  17.240  0.398E-03  0.332E-02  0.398E-03  0.332E-02
  17.260  0.445E-03  0.338E-02  0.445E-03  0.338E-02
  17.280  0.492E-03  0.342E-02  0.492E-03  0.342E-02
  17.300  0.538E-03  0.343E-02  0.538E-03  0.343E-02
  17.320  0.579E-03  0.342E-02  0.579E-03  0.342E-02
  17.340  0.615E-03  0.339E-02  0.615E-03  0.339E-02
  17.360  0.643E-03  0.333E-02  0.643E-03  0.333E-02
  17.380  0.666E-03  0.323E-02  0.666E-03  0.323E-02
  17.400  0.684E-03  0.310E-02  0.684E-03  0.310E-02
  17.420  0.702E-03  0.293E-02  0.702E-03  0.293E-02
  17.440  0.724E-03  0.273E-02  0.724E-03  0.273E-02
  17.460  0.754E-03  0.250E-02  0.754E-03  0.250E-02
  17.480  0.797E-03  0.225E-02  0.797E-03  0.225E-02
  17.500  0.857E-03  0.200E-02  0.857E-03  0.200E-02
  17.520  0.932E-03  0.175E-02  0.932E-03  0.175E-02
  17.540  0.102E-02  0.152E-02  0.102E-02  0.152E-02
  17.560  0.112E-02  0.132E-02  0.112E-02  0.132E-02
  17.580  0.122E-02  0.113E-02  0.122E-02  0.113E-02
  17.600  0.131E-02  0.975E-03  0.131E-02  0.975E-03
  17.620  0.137E-02  0.839E-03  0.137E-02  0.839E-03
  17.640  0.142E-02  0.720E-03  0.142E-02  0.720E-03
  17.660  0.142E-02  0.617E-03  0.142E-02  0.617E-03
  17.680  0.140E-02  0.529E-03  0.140E-02  0.529E-03
  17.700  0.134E-02  0.456E-03  0.134E-02  0.456E-03
  17.720  0.124E-02  0.399E-03  0.124E-02  0.399E-03
  17.740  0.113E-02  0.360E-03  0.113E-02  0.360E-03
  17.760  0.100E-02  0.341E-03  0.100E-02  0.341E-03
  17.780  0.867E-03  0.340E-03  0.867E-03  0.340E-03
  17.800  0.735E-03  0.356E-03  0.735E-03  0.356E-03
  17.820  0.612E-03  0.386E-03  0.612E-03  0.386E-03
  17.840  0.504E-03  0.425E-03  0.504E-03  0.425E-03
  17.860  0.415E-03  0.466E-03  0.415E-03  0.466E-03
  17.880  0.349E-03  0.505E-03  0.349E-03  0.505E-03
  17.900  0.308E-03  0.536E-03  0.308E-03  0.536E-03
  17.920  0.293E-03  0.553E-03  0.293E-03  0.553E-03
  17.940  0.305E-03  0.555E-03  0.305E-03  0.555E-03
  17.960  0.342E-03  0.539E-03  0.342E-03  0.539E-03
  17.980  0.404E-03  0.508E-03  0.404E-03  0.508E-03
  18.000  0.486E-03  0.462E-03  0.486E-03  0.462E-03
  18.020  0.583E-03  0.406E-03  0.583E-03  0.406E-03
  18.040  0.690E-03  0.346E-03  0.690E-03  0.346E-03
  18.060  0.799E-03  0.284E-03  0.799E-03  0.284E-03
  18.080  0.901E-03  0.226E-03  0.901E-03  0.226E-03
  18.100  0.990E-03  0.175E-03  0.990E-03  0.175E-03
  18.120  0.106E-02  0.131E-03  0.106E-02  0.131E-03
  18.140  0.110E-02  0.963E-04  0.110E-02  0.963E-04
  18.160  0.111E-02  0.699E-04  0.111E-02  0.699E-04
  18.180  0.109E-02  0.509E-04  0.109E-02  0.509E-04
  18.200  0.105E-02  0.378E-04  0.105E-02  0.378E-04
  18.220  0.100E-02  0.294E-04  0.100E-02  0.294E-04
  18.240  0.943E-03  0.244E-04  0.943E-03  0.244E-04
  18.260  0.892E-03  0.219E-04  0.892E-03  0.219E-04
  18.280  0.858E-03  0.215E-04  0.858E-03  0.215E-04
  18.300  0.847E-03  0.228E-04  0.847E-03  0.228E-04
  18.320  0.865E-03  0.258E-04  0.865E-03  0.258E-04
  18.340  0.911E-03  0.305E-04  0.911E-03  0.305E-04
  18.360  0.981E-03  0.372E-04  0.981E-03  0.372E-04
  18.380  0.107E-02  0.456E-04  0.107E-02  0.456E-04
  18.400  0.115E-02  0.555E-04  0.115E-02  0.555E-04
  18.420  0.124E-02  0.664E-04  0.124E-02  0.664E-04
  18.440  0.130E-02  0.776E-04  0.130E-02  0.776E-04
  18.460  0.133E-02  0.882E-04  0.133E-02  0.882E-04
  18.480  0.133E-02  0.971E-04  0.133E-02  0.971E-04
  18.500  0.130E-02  0.104E-03  0.130E-02  0.104E-03
  18.520  0.124E-02  0.107E-03  0.124E-02  0.107E-03
  18.540  0.117E-02  0.108E-03  0.117E-02  0.108E-03
  18.560  0.108E-02  0.105E-03  0.108E-02  0.105E-03
  18.580  0.100E-02  0.996E-04  0.100E-02  0.996E-04
  18.600  0.931E-03  0.923E-04  0.931E-03  0.923E-04
  18.620  0.879E-03  0.838E-04  0.879E-03  0.838E-04
  18.640  0.846E-03  0.747E-04  0.846E-03  0.747E-04
  18.660  0.830E-03  0.659E-04  0.830E-03  0.659E-04
  18.680  0.827E-03  0.578E-04  0.827E-03  0.578E-04
  18.700  0.829E-03  0.508E-04  0.829E-03  0.508E-04
  18.720  0.832E-03  0.455E-04  0.832E-03  0.455E-04
  18.740  0.830E-03  0.420E-04  0.830E-03  0.420E-04
  18.760  0.819E-03  0.407E-04  0.819E-03  0.407E-04
  18.780  0.798E-03  0.419E-04  0.798E-03  0.419E-04
  18.800  0.766E-03  0.459E-04  0.766E-03  0.459E-04
  18.820  0.724E-03  0.530E-04  0.724E-03  0.530E-04
  18.840  0.675E-03  0.633E-04  0.675E-03  0.633E-04
  18.860  0.621E-03  0.770E-04  0.621E-03  0.770E-04
  18.880  0.566E-03  0.941E-04  0.566E-03  0.941E-04
  18.900  0.514E-03  0.114E-03  0.514E-03  0.114E-03
  18.920  0.467E-03  0.137E-03  0.467E-03  0.137E-03
  18.940  0.430E-03  0.160E-03  0.430E-03  0.160E-03
  18.960  0.405E-03  0.184E-03  0.405E-03  0.184E-03
  18.980  0.394E-03  0.205E-03  0.394E-03  0.205E-03
  19.000  0.401E-03  0.222E-03  0.401E-03  0.222E-03
  19.020  0.426E-03  0.233E-03  0.426E-03  0.233E-03
  19.040  0.472E-03  0.237E-03  0.472E-03  0.237E-03
  19.060  0.537E-03  0.233E-03  0.537E-03  0.233E-03
  19.080  0.617E-03  0.221E-03  0.617E-03  0.221E-03
  19.100  0.708E-03  0.204E-03  0.708E-03  0.204E-03
  19.120  0.802E-03  0.182E-03  0.802E-03  0.182E-03
  19.140  0.888E-03  0.158E-03  0.888E-03  0.158E-03
  19.160  0.957E-03  0.134E-03  0.957E-03  0.134E-03
  19.180  0.100E-02  0.112E-03  0.100E-02  0.112E-03
  19.200  0.102E-02  0.927E-04  0.102E-02  0.927E-04
  19.220  0.100E-02  0.768E-04  0.100E-02  0.768E-04
  19.240  0.966E-03  0.642E-04  0.966E-03  0.642E-04
  19.260  0.914E-03  0.545E-04  0.914E-03  0.545E-04
  19.280  0.857E-03  0.473E-04  0.857E-03  0.473E-04
  19.300  0.807E-03  0.420E-04  0.807E-03  0.420E-04
  19.320  0.774E-03  0.383E-04  0.774E-03  0.383E-04
  19.340  0.764E-03  0.359E-04  0.764E-03  0.359E-04
  19.360  0.779E-03  0.348E-04  0.779E-03  0.348E-04
  19.380  0.815E-03  0.351E-04  0.815E-03  0.351E-04
  19.400  0.867E-03  0.372E-04  0.867E-03  0.372E-04
  19.420  0.927E-03  0.416E-04  0.927E-03  0.416E-04
  19.440  0.986E-03  0.489E-04  0.986E-03  0.489E-04
  19.460  0.104E-02  0.599E-04  0.104E-02  0.599E-04
  19.480  0.107E-02  0.754E-04  0.107E-02  0.754E-04
  19.500  0.109E-02  0.960E-04  0.109E-02  0.960E-04
  19.520  0.110E-02  0.122E-03  0.110E-02  0.122E-03
  19.540  0.109E-02  0.154E-03  0.109E-02  0.154E-03
  19.560  0.107E-02  0.190E-03  0.107E-02  0.190E-03
  19.580  0.103E-02  0.229E-03  0.103E-02  0.229E-03
  19.600  0.992E-03  0.269E-03  0.992E-03  0.269E-03
  19.620  0.943E-03  0.307E-03  0.943E-03  0.307E-03
  19.640  0.889E-03  0.339E-03  0.889E-03  0.339E-03
  19.660  0.830E-03  0.362E-03  0.830E-03  0.362E-03
  19.680  0.767E-03  0.374E-03  0.767E-03  0.374E-03
  19.700  0.702E-03  0.374E-03  0.702E-03  0.374E-03
  19.720  0.636E-03  0.361E-03  0.636E-03  0.361E-03
  19.740  0.572E-03  0.339E-03  0.572E-03  0.339E-03
  19.760  0.514E-03  0.309E-03  0.514E-03  0.309E-03
  19.780  0.465E-03  0.276E-03  0.465E-03  0.276E-03
  19.800  0.429E-03  0.244E-03  0.429E-03  0.244E-03
  19.820  0.407E-03  0.217E-03  0.407E-03  0.217E-03
  19.840  0.402E-03  0.196E-03  0.402E-03  0.196E-03
  19.860  0.414E-03  0.184E-03  0.414E-03  0.184E-03
  19.880  0.441E-03  0.181E-03  0.441E-03  0.181E-03
  19.900  0.482E-03  0.186E-03  0.482E-03  0.186E-03
  19.920  0.533E-03  0.199E-03  0.533E-03  0.199E-03
  19.940  0.589E-03  0.218E-03  0.589E-03  0.218E-03
  19.960  0.645E-03  0.240E-03  0.645E-03  0.240E-03
  19.980  0.697E-03  0.264E-03  0.697E-03  0.264E-03
  20.000  0.738E-03  0.288E-03  0.738E-03  0.288E-03
  20.020  0.765E-03  0.310E-03  0.765E-03  0.310E-03
  20.040  0.776E-03  0.330E-03  0.776E-03  0.330E-03
  20.060  0.768E-03  0.348E-03  0.768E-03  0.348E-03
  20.080  0.742E-03  0.364E-03  0.742E-03  0.364E-03
  20.100  0.701E-03  0.379E-03  0.701E-03  0.379E-03
  20.120  0.647E-03  0.394E-03  0.647E-03  0.394E-03
  20.140  0.585E-03  0.409E-03  0.585E-03  0.409E-03
  20.160  0.519E-03  0.425E-03  0.519E-03  0.425E-03
  20.180  0.453E-03  0.442E-03  0.453E-03  0.442E-03
  20.200  0.390E-03  0.461E-03  0.390E-03  0.461E-03
  20.220  0.333E-03  0.481E-03  0.333E-03  0.481E-03
  20.240  0.282E-03  0.502E-03  0.282E-03  0.502E-03
  20.260  0.238E-03  0.524E-03  0.238E-03  0.524E-03
  20.280  0.202E-03  0.549E-03  0.202E-03  0.549E-03
  20.300  0.174E-03  0.578E-03  0.174E-03  0.578E-03
  20.320  0.153E-03  0.613E-03  0.153E-03  0.613E-03
  20.340  0.139E-03  0.658E-03  0.139E-03  0.658E-03
  20.360  0.131E-03  0.714E-03  0.131E-03  0.714E-03
  20.380  0.129E-03  0.781E-03  0.129E-03  0.781E-03
  20.400  0.132E-03  0.857E-03  0.132E-03  0.857E-03
  20.420  0.140E-03  0.939E-03  0.140E-03  0.939E-03
  20.440  0.153E-03  0.102E-02  0.153E-03  0.102E-02
  20.460  0.173E-03  0.109E-02  0.173E-03  0.109E-02
  20.480  0.199E-03  0.115E-02  0.199E-03  0.115E-02
  20.500  0.232E-03  0.118E-02  0.232E-03  0.118E-02
  20.520  0.271E-03  0.118E-02  0.271E-03  0.118E-02
  20.540  0.316E-03  0.115E-02  0.316E-03  0.115E-02
  20.560  0.364E-03  0.109E-02  0.364E-03  0.109E-02
  20.580  0.414E-03  0.101E-02  0.414E-03  0.101E-02
  20.600  0.463E-03  0.920E-03  0.463E-03  0.920E-03
  20.620  0.509E-03  0.821E-03  0.509E-03  0.821E-03
  20.640  0.551E-03  0.725E-03  0.551E-03  0.725E-03
  20.660  0.587E-03  0.640E-03  0.587E-03  0.640E-03
  20.680  0.617E-03  0.569E-03  0.617E-03  0.569E-03
  20.700  0.640E-03  0.516E-03  0.640E-03  0.516E-03
  20.720  0.656E-03  0.481E-03  0.656E-03  0.481E-03
  20.740  0.665E-03  0.460E-03  0.665E-03  0.460E-03
  20.760  0.667E-03  0.452E-03  0.667E-03  0.452E-03
  20.780  0.660E-03  0.454E-03  0.660E-03  0.454E-03
  20.800  0.646E-03  0.461E-03  0.646E-03  0.461E-03
  20.820  0.625E-03  0.471E-03  0.625E-03  0.471E-03
  20.840  0.598E-03  0.482E-03  0.598E-03  0.482E-03
  20.860  0.566E-03  0.492E-03  0.566E-03  0.492E-03
  20.880  0.531E-03  0.499E-03  0.531E-03  0.499E-03
  20.900  0.495E-03  0.504E-03  0.495E-03  0.504E-03
  20.920  0.459E-03  0.505E-03  0.459E-03  0.505E-03
  20.940  0.426E-03  0.504E-03  0.426E-03  0.504E-03
  20.960  0.395E-03  0.503E-03  0.395E-03  0.503E-03
  20.980  0.368E-03  0.502E-03  0.368E-03  0.502E-03
  21.000  0.347E-03  0.504E-03  0.347E-03  0.504E-03
  21.020  0.331E-03  0.511E-03  0.331E-03  0.511E-03
  21.040  0.321E-03  0.523E-03  0.321E-03  0.523E-03
  21.060  0.316E-03  0.540E-03  0.316E-03  0.540E-03
  21.080  0.316E-03  0.561E-03  0.316E-03  0.561E-03
  21.100  0.321E-03  0.584E-03  0.321E-03  0.584E-03
  21.120  0.328E-03  0.607E-03  0.328E-03  0.607E-03
  21.140  0.337E-03  0.628E-03  0.337E-03  0.628E-03
  21.160  0.344E-03  0.647E-03  0.344E-03  0.647E-03
  21.180  0.348E-03  0.663E-03  0.348E-03  0.663E-03
  21.200  0.348E-03  0.677E-03  0.348E-03  0.677E-03
  21.220  0.343E-03  0.688E-03  0.343E-03  0.688E-03
  21.240  0.331E-03  0.699E-03  0.331E-03  0.699E-03
  21.260  0.314E-03  0.709E-03  0.314E-03  0.709E-03
  21.280  0.291E-03  0.719E-03  0.291E-03  0.719E-03
  21.300  0.264E-03  0.729E-03  0.264E-03  0.729E-03
  21.320  0.233E-03  0.738E-03  0.233E-03  0.738E-03
  21.340  0.201E-03  0.746E-03  0.201E-03  0.746E-03
  21.360  0.169E-03  0.751E-03  0.169E-03  0.751E-03
  21.380  0.138E-03  0.753E-03  0.138E-03  0.753E-03
  21.400  0.110E-03  0.750E-03  0.110E-03  0.750E-03
  21.420  0.852E-04  0.741E-03  0.852E-04  0.741E-03
  21.440  0.654E-04  0.723E-03  0.654E-04  0.723E-03
  21.460  0.511E-04  0.697E-03  0.511E-04  0.697E-03
  21.480  0.429E-04  0.663E-03  0.429E-04  0.663E-03
  21.500  0.414E-04  0.623E-03  0.414E-04  0.623E-03
  21.520  0.469E-04  0.581E-03  0.469E-04  0.581E-03
  21.540  0.602E-04  0.543E-03  0.602E-04  0.543E-03
  21.560  0.814E-04  0.511E-03  0.814E-04  0.511E-03
  21.580  0.110E-03  0.491E-03  0.110E-03  0.491E-03
  21.600  0.147E-03  0.484E-03  0.147E-03  0.484E-03
  21.620  0.188E-03  0.492E-03  0.188E-03  0.492E-03
  21.640  0.233E-03  0.511E-03  0.233E-03  0.511E-03
  21.660  0.276E-03  0.538E-03  0.276E-03  0.538E-03
  21.680  0.314E-03  0.566E-03  0.314E-03  0.566E-03
  21.700  0.343E-03  0.591E-03  0.343E-03  0.591E-03
  21.720  0.360E-03  0.607E-03  0.360E-03  0.607E-03
  21.740  0.361E-03  0.610E-03  0.361E-03  0.610E-03
  21.760  0.348E-03  0.598E-03  0.348E-03  0.598E-03
  21.780  0.321E-03  0.571E-03  0.321E-03  0.571E-03
  21.800  0.285E-03  0.532E-03  0.285E-03  0.532E-03
  21.820  0.242E-03  0.482E-03  0.242E-03  0.482E-03
  21.840  0.197E-03  0.427E-03  0.197E-03  0.427E-03
  21.860  0.154E-03  0.369E-03  0.154E-03  0.369E-03
  21.880  0.116E-03  0.314E-03  0.116E-03  0.314E-03
  21.900  0.845E-04  0.265E-03  0.845E-04  0.265E-03
  21.920  0.597E-04  0.223E-03  0.597E-04  0.223E-03
  21.940  0.418E-04  0.191E-03  0.418E-04  0.191E-03
  21.960  0.297E-04  0.169E-03  0.297E-04  0.169E-03
  21.980  0.223E-04  0.156E-03  0.223E-04  0.156E-03
  22.000  0.184E-04  0.153E-03  0.184E-04  0.153E-03
  22.020  0.170E-04  0.156E-03  0.170E-04  0.156E-03
  22.040  0.171E-04  0.165E-03  0.171E-04  0.165E-03
  22.060  0.180E-04  0.177E-03  0.180E-04  0.177E-03
  22.080  0.194E-04  0.191E-03  0.194E-04  0.191E-03
  22.100  0.211E-04  0.205E-03  0.211E-04  0.205E-03
  22.120  0.232E-04  0.218E-03  0.232E-04  0.218E-03
  22.140  0.261E-04  0.231E-03  0.261E-04  0.231E-03
  22.160  0.302E-04  0.244E-03  0.302E-04  0.244E-03
  22.180  0.359E-04  0.257E-03  0.359E-04  0.257E-03
  22.200  0.439E-04  0.270E-03  0.439E-04  0.270E-03
  22.220  0.542E-04  0.284E-03  0.542E-04  0.284E-03
  22.240  0.669E-04  0.299E-03  0.669E-04  0.299E-03
  22.260  0.815E-04  0.315E-03  0.815E-04  0.315E-03
  22.280  0.973E-04  0.331E-03  0.973E-04  0.331E-03
  22.300  0.113E-03  0.347E-03  0.113E-03  0.347E-03
  22.320  0.128E-03  0.364E-03  0.128E-03  0.364E-03
  22.340  0.140E-03  0.383E-03  0.140E-03  0.383E-03
  22.360  0.149E-03  0.403E-03  0.149E-03  0.403E-03
  22.380  0.155E-03  0.427E-03  0.155E-03  0.427E-03
  22.400  0.157E-03  0.453E-03  0.157E-03  0.453E-03
  22.420  0.156E-03  0.480E-03  0.156E-03  0.480E-03
  22.440  0.153E-03  0.506E-03  0.153E-03  0.506E-03
  22.460  0.151E-03  0.529E-03  0.151E-03  0.529E-03
  22.480  0.149E-03  0.545E-03  0.149E-03  0.545E-03
  22.500  0.148E-03  0.551E-03  0.148E-03  0.551E-03
  22.520  0.149E-03  0.547E-03  0.149E-03  0.547E-03
  22.540  0.150E-03  0.530E-03  0.150E-03  0.530E-03
  22.560  0.150E-03  0.502E-03  0.150E-03  0.502E-03
  22.580  0.148E-03  0.466E-03  0.148E-03  0.466E-03
  22.600  0.143E-03  0.424E-03  0.143E-03  0.424E-03
  22.620  0.135E-03  0.379E-03  0.135E-03  0.379E-03
  22.640  0.123E-03  0.335E-03  0.123E-03  0.335E-03
  22.660  0.108E-03  0.292E-03  0.108E-03  0.292E-03
  22.680  0.926E-04  0.254E-03  0.926E-04  0.254E-03
  22.700  0.771E-04  0.219E-03  0.771E-04  0.219E-03
  22.720  0.633E-04  0.189E-03  0.633E-04  0.189E-03
  22.740  0.523E-04  0.163E-03  0.523E-04  0.163E-03
  22.760  0.450E-04  0.141E-03  0.450E-04  0.141E-03
  22.780  0.416E-04  0.122E-03  0.416E-04  0.122E-03
  22.800  0.422E-04  0.107E-03  0.422E-04  0.107E-03
  22.820  0.465E-04  0.955E-04  0.465E-04  0.955E-04
  22.840  0.540E-04  0.876E-04  0.540E-04  0.876E-04
  22.860  0.637E-04  0.841E-04  0.637E-04  0.841E-04
  22.880  0.748E-04  0.852E-04  0.748E-04  0.852E-04
  22.900  0.861E-04  0.913E-04  0.861E-04  0.913E-04
  22.920  0.965E-04  0.102E-03  0.965E-04  0.102E-03
  22.940  0.105E-03  0.118E-03  0.105E-03  0.118E-03
  22.960  0.110E-03  0.137E-03  0.110E-03  0.137E-03
  22.980  0.112E-03  0.159E-03  0.112E-03  0.159E-03
  23.000  0.111E-03  0.180E-03  0.111E-03  0.180E-03
  23.020  0.106E-03  0.200E-03  0.106E-03  0.200E-03
